# E (eV)   ldos(E)   pdos(E)   
 -24.138  0.188E-06  0.188E-06
 -24.123  0.262E-06  0.262E-06
 -24.108  0.364E-06  0.364E-06
 -24.093  0.503E-06  0.503E-06
 -24.078  0.690E-06  0.690E-06
 -24.063  0.941E-06  0.941E-06
 -24.048  0.128E-05  0.128E-05
 -24.033  0.172E-05  0.172E-05
 -24.018  0.231E-05  0.231E-05
 -24.003  0.307E-05  0.307E-05
 -23.988  0.407E-05  0.407E-05
 -23.973  0.536E-05  0.536E-05
 -23.958  0.702E-05  0.702E-05
 -23.943  0.913E-05  0.913E-05
 -23.928  0.118E-04  0.118E-04
 -23.913  0.152E-04  0.152E-04
 -23.898  0.194E-04  0.194E-04
 -23.883  0.247E-04  0.247E-04
 -23.868  0.312E-04  0.312E-04
 -23.853  0.392E-04  0.392E-04
 -23.838  0.490E-04  0.490E-04
 -23.823  0.609E-04  0.609E-04
 -23.808  0.752E-04  0.752E-04
 -23.793  0.923E-04  0.923E-04
 -23.778  0.113E-03  0.113E-03
 -23.763  0.137E-03  0.137E-03
 -23.748  0.165E-03  0.165E-03
 -23.733  0.198E-03  0.198E-03
 -23.718  0.236E-03  0.236E-03
 -23.703  0.281E-03  0.281E-03
 -23.688  0.331E-03  0.331E-03
 -23.673  0.388E-03  0.388E-03
 -23.658  0.453E-03  0.453E-03
 -23.643  0.526E-03  0.526E-03
 -23.628  0.607E-03  0.607E-03
 -23.613  0.696E-03  0.696E-03
 -23.598  0.794E-03  0.794E-03
 -23.583  0.902E-03  0.902E-03
 -23.568  0.102E-02  0.102E-02
 -23.553  0.114E-02  0.114E-02
 -23.538  0.128E-02  0.128E-02
 -23.523  0.142E-02  0.142E-02
 -23.508  0.157E-02  0.157E-02
 -23.493  0.172E-02  0.172E-02
 -23.478  0.188E-02  0.188E-02
 -23.463  0.205E-02  0.205E-02
 -23.448  0.222E-02  0.222E-02
 -23.433  0.239E-02  0.239E-02
 -23.418  0.256E-02  0.256E-02
 -23.403  0.273E-02  0.273E-02
 -23.388  0.290E-02  0.290E-02
 -23.373  0.307E-02  0.307E-02
 -23.358  0.322E-02  0.322E-02
 -23.343  0.338E-02  0.338E-02
 -23.328  0.352E-02  0.352E-02
 -23.313  0.366E-02  0.366E-02
 -23.298  0.378E-02  0.378E-02
 -23.283  0.389E-02  0.389E-02
 -23.268  0.400E-02  0.400E-02
 -23.253  0.409E-02  0.409E-02
 -23.238  0.416E-02  0.416E-02
 -23.223  0.423E-02  0.423E-02
 -23.208  0.429E-02  0.429E-02
 -23.193  0.433E-02  0.433E-02
 -23.178  0.437E-02  0.437E-02
 -23.163  0.440E-02  0.440E-02
 -23.148  0.442E-02  0.442E-02
 -23.133  0.445E-02  0.445E-02
 -23.118  0.447E-02  0.447E-02
 -23.103  0.449E-02  0.449E-02
 -23.088  0.452E-02  0.452E-02
 -23.073  0.455E-02  0.455E-02
 -23.058  0.460E-02  0.460E-02
 -23.043  0.466E-02  0.466E-02
 -23.028  0.474E-02  0.474E-02
 -23.013  0.485E-02  0.485E-02
 -22.998  0.498E-02  0.498E-02
 -22.983  0.515E-02  0.515E-02
 -22.968  0.536E-02  0.536E-02
 -22.953  0.562E-02  0.562E-02
 -22.938  0.592E-02  0.592E-02
 -22.923  0.629E-02  0.629E-02
 -22.908  0.671E-02  0.671E-02
 -22.893  0.721E-02  0.721E-02
 -22.878  0.778E-02  0.778E-02
 -22.863  0.844E-02  0.844E-02
 -22.848  0.918E-02  0.918E-02
 -22.833  0.100E-01  0.100E-01
 -22.818  0.109E-01  0.109E-01
 -22.803  0.120E-01  0.120E-01
 -22.788  0.131E-01  0.131E-01
 -22.773  0.143E-01  0.143E-01
 -22.758  0.157E-01  0.157E-01
 -22.743  0.171E-01  0.171E-01
 -22.728  0.187E-01  0.187E-01
 -22.713  0.203E-01  0.203E-01
 -22.698  0.221E-01  0.221E-01
 -22.683  0.239E-01  0.239E-01
 -22.668  0.258E-01  0.258E-01
 -22.653  0.277E-01  0.277E-01
 -22.638  0.297E-01  0.297E-01
 -22.623  0.317E-01  0.317E-01
 -22.608  0.338E-01  0.338E-01
 -22.593  0.358E-01  0.358E-01
 -22.578  0.379E-01  0.379E-01
 -22.563  0.399E-01  0.399E-01
 -22.548  0.418E-01  0.418E-01
 -22.533  0.438E-01  0.438E-01
 -22.518  0.456E-01  0.456E-01
 -22.503  0.474E-01  0.474E-01
 -22.488  0.490E-01  0.490E-01
 -22.473  0.506E-01  0.506E-01
 -22.458  0.521E-01  0.521E-01
 -22.443  0.534E-01  0.534E-01
 -22.428  0.547E-01  0.547E-01
 -22.413  0.558E-01  0.558E-01
 -22.398  0.568E-01  0.568E-01
 -22.383  0.577E-01  0.577E-01
 -22.368  0.585E-01  0.585E-01
 -22.353  0.593E-01  0.593E-01
 -22.338  0.599E-01  0.599E-01
 -22.323  0.605E-01  0.605E-01
 -22.308  0.610E-01  0.610E-01
 -22.293  0.615E-01  0.615E-01
 -22.278  0.619E-01  0.619E-01
 -22.263  0.623E-01  0.623E-01
 -22.248  0.627E-01  0.627E-01
 -22.233  0.631E-01  0.631E-01
 -22.218  0.635E-01  0.635E-01
 -22.203  0.640E-01  0.640E-01
 -22.188  0.644E-01  0.644E-01
 -22.173  0.649E-01  0.649E-01
 -22.158  0.654E-01  0.654E-01
 -22.143  0.660E-01  0.660E-01
 -22.128  0.667E-01  0.667E-01
 -22.113  0.674E-01  0.674E-01
 -22.098  0.682E-01  0.682E-01
 -22.083  0.691E-01  0.691E-01
 -22.068  0.701E-01  0.701E-01
 -22.053  0.712E-01  0.712E-01
 -22.038  0.724E-01  0.724E-01
 -22.023  0.737E-01  0.737E-01
 -22.008  0.751E-01  0.751E-01
 -21.993  0.767E-01  0.767E-01
 -21.978  0.784E-01  0.784E-01
 -21.963  0.802E-01  0.802E-01
 -21.948  0.822E-01  0.822E-01
 -21.933  0.843E-01  0.843E-01
 -21.918  0.864E-01  0.864E-01
 -21.903  0.887E-01  0.887E-01
 -21.888  0.911E-01  0.911E-01
 -21.873  0.936E-01  0.936E-01
 -21.858  0.961E-01  0.961E-01
 -21.843  0.987E-01  0.987E-01
 -21.828  0.101E+00  0.101E+00
 -21.813  0.104E+00  0.104E+00
 -21.798  0.107E+00  0.107E+00
 -21.783  0.109E+00  0.109E+00
 -21.768  0.112E+00  0.112E+00
 -21.753  0.114E+00  0.114E+00
 -21.738  0.117E+00  0.117E+00
 -21.723  0.119E+00  0.119E+00
 -21.708  0.122E+00  0.122E+00
 -21.693  0.124E+00  0.124E+00
 -21.678  0.127E+00  0.127E+00
 -21.663  0.129E+00  0.129E+00
 -21.648  0.132E+00  0.132E+00
 -21.633  0.135E+00  0.135E+00
 -21.618  0.138E+00  0.138E+00
 -21.603  0.142E+00  0.142E+00
 -21.588  0.145E+00  0.145E+00
 -21.573  0.150E+00  0.150E+00
 -21.558  0.154E+00  0.154E+00
 -21.543  0.159E+00  0.159E+00
 -21.528  0.165E+00  0.165E+00
 -21.513  0.171E+00  0.171E+00
 -21.498  0.178E+00  0.178E+00
 -21.483  0.185E+00  0.185E+00
 -21.468  0.192E+00  0.192E+00
 -21.453  0.201E+00  0.201E+00
 -21.438  0.209E+00  0.209E+00
 -21.423  0.218E+00  0.218E+00
 -21.408  0.227E+00  0.227E+00
 -21.393  0.236E+00  0.236E+00
 -21.378  0.245E+00  0.245E+00
 -21.363  0.254E+00  0.254E+00
 -21.348  0.263E+00  0.263E+00
 -21.333  0.271E+00  0.271E+00
 -21.318  0.279E+00  0.279E+00
 -21.303  0.286E+00  0.286E+00
 -21.288  0.292E+00  0.292E+00
 -21.273  0.296E+00  0.296E+00
 -21.258  0.300E+00  0.300E+00
 -21.243  0.303E+00  0.303E+00
 -21.228  0.304E+00  0.304E+00
 -21.213  0.304E+00  0.304E+00
 -21.198  0.303E+00  0.303E+00
 -21.183  0.300E+00  0.300E+00
 -21.168  0.296E+00  0.296E+00
 -21.153  0.291E+00  0.291E+00
 -21.138  0.285E+00  0.285E+00
 -21.123  0.278E+00  0.278E+00
 -21.108  0.269E+00  0.269E+00
 -21.093  0.260E+00  0.260E+00
 -21.078  0.250E+00  0.250E+00
 -21.063  0.240E+00  0.240E+00
 -21.048  0.229E+00  0.229E+00
 -21.033  0.218E+00  0.218E+00
 -21.018  0.206E+00  0.206E+00
 -21.003  0.195E+00  0.195E+00
 -20.988  0.184E+00  0.184E+00
 -20.973  0.172E+00  0.172E+00
 -20.958  0.161E+00  0.161E+00
 -20.943  0.151E+00  0.151E+00
 -20.928  0.140E+00  0.140E+00
 -20.913  0.130E+00  0.130E+00
 -20.898  0.121E+00  0.121E+00
 -20.883  0.112E+00  0.112E+00
 -20.868  0.103E+00  0.103E+00
 -20.853  0.951E-01  0.951E-01
 -20.838  0.875E-01  0.875E-01
 -20.823  0.803E-01  0.803E-01
 -20.808  0.736E-01  0.736E-01
 -20.793  0.673E-01  0.673E-01
 -20.778  0.614E-01  0.614E-01
 -20.763  0.559E-01  0.559E-01
 -20.748  0.509E-01  0.509E-01
 -20.733  0.461E-01  0.461E-01
 -20.718  0.417E-01  0.417E-01
 -20.703  0.377E-01  0.377E-01
 -20.688  0.339E-01  0.339E-01
 -20.673  0.305E-01  0.305E-01
 -20.658  0.273E-01  0.273E-01
 -20.643  0.243E-01  0.243E-01
 -20.628  0.216E-01  0.216E-01
 -20.613  0.192E-01  0.192E-01
 -20.598  0.169E-01  0.169E-01
 -20.583  0.149E-01  0.149E-01
 -20.568  0.130E-01  0.130E-01
 -20.553  0.114E-01  0.114E-01
 -20.538  0.987E-02  0.987E-02
 -20.523  0.854E-02  0.854E-02
 -20.508  0.735E-02  0.735E-02
 -20.493  0.630E-02  0.630E-02
 -20.478  0.537E-02  0.537E-02
 -20.463  0.456E-02  0.456E-02
 -20.448  0.385E-02  0.385E-02
 -20.433  0.324E-02  0.324E-02
 -20.418  0.271E-02  0.271E-02
 -20.403  0.225E-02  0.225E-02
 -20.388  0.186E-02  0.186E-02
 -20.373  0.153E-02  0.153E-02
 -20.358  0.126E-02  0.126E-02
 -20.343  0.102E-02  0.102E-02
 -20.328  0.829E-03  0.829E-03
 -20.313  0.668E-03  0.668E-03
 -20.298  0.536E-03  0.536E-03
 -20.283  0.427E-03  0.427E-03
 -20.268  0.338E-03  0.338E-03
 -20.253  0.267E-03  0.267E-03
 -20.238  0.209E-03  0.209E-03
 -20.223  0.163E-03  0.163E-03
 -20.208  0.126E-03  0.126E-03
 -20.193  0.975E-04  0.975E-04
 -20.178  0.747E-04  0.747E-04
 -20.163  0.569E-04  0.569E-04
 -20.148  0.432E-04  0.432E-04
 -20.133  0.325E-04  0.325E-04
 -20.118  0.244E-04  0.244E-04
 -20.103  0.181E-04  0.181E-04
 -20.088  0.134E-04  0.134E-04
 -20.073  0.990E-05  0.990E-05
 -20.058  0.725E-05  0.725E-05
 -20.043  0.528E-05  0.528E-05
 -20.028  0.382E-05  0.382E-05
 -20.013  0.275E-05  0.275E-05
 -19.998  0.197E-05  0.197E-05
 -19.983  0.140E-05  0.140E-05
 -19.968  0.989E-06  0.989E-06
 -19.953  0.695E-06  0.695E-06
 -19.938  0.486E-06  0.486E-06
 -19.923  0.337E-06  0.337E-06
 -19.908  0.233E-06  0.233E-06
 -19.893  0.160E-06  0.160E-06
 -19.878  0.109E-06  0.109E-06
 -19.863  0.742E-07  0.742E-07
 -19.848  0.500E-07  0.500E-07
 -19.833  0.336E-07  0.336E-07
 -19.818  0.224E-07  0.224E-07
 -19.803  0.148E-07  0.148E-07
 -19.788  0.978E-08  0.978E-08
 -19.773  0.640E-08  0.640E-08
 -19.758  0.417E-08  0.417E-08
 -19.743  0.270E-08  0.270E-08
 -19.728  0.174E-08  0.174E-08
 -19.713  0.111E-08  0.111E-08
 -19.698  0.707E-09  0.707E-09
 -19.683  0.447E-09  0.447E-09
 -19.668  0.281E-09  0.281E-09
 -19.653  0.175E-09  0.175E-09
 -19.638  0.109E-09  0.109E-09
 -19.623  0.672E-10  0.672E-10
 -19.608  0.412E-10  0.412E-10
 -19.593  0.251E-10  0.251E-10
 -19.578  0.152E-10  0.152E-10
 -19.563  0.913E-11  0.913E-11
 -19.548  0.547E-11  0.547E-11
 -19.533  0.324E-11  0.324E-11
 -19.518  0.191E-11  0.191E-11
 -19.503  0.111E-11  0.111E-11
 -19.488  0.633E-12  0.633E-12
 -19.473  0.350E-12  0.350E-12
 -19.458  0.178E-12  0.178E-12
 -19.443  0.617E-13  0.617E-13
 -19.428  0.212E-13  0.212E-13
 -19.413  0.000E+00  0.000E+00
 -19.398  0.000E+00  0.000E+00
 -19.383  0.000E+00  0.000E+00
 -19.368  0.000E+00  0.000E+00
 -19.353  0.000E+00  0.000E+00
 -19.338  0.000E+00  0.000E+00
 -19.323  0.000E+00  0.000E+00
 -19.308  0.000E+00  0.000E+00
 -19.293  0.000E+00  0.000E+00
 -19.278  0.000E+00  0.000E+00
 -19.263  0.000E+00  0.000E+00
 -19.248  0.000E+00  0.000E+00
 -19.233  0.000E+00  0.000E+00
 -19.218  0.000E+00  0.000E+00
 -19.203  0.000E+00  0.000E+00
 -19.188  0.000E+00  0.000E+00
 -19.173  0.000E+00  0.000E+00
 -19.158  0.000E+00  0.000E+00
 -19.143  0.000E+00  0.000E+00
 -19.128  0.000E+00  0.000E+00
 -19.113  0.000E+00  0.000E+00
 -19.098  0.000E+00  0.000E+00
 -19.083  0.000E+00  0.000E+00
 -19.068  0.000E+00  0.000E+00
 -19.053  0.000E+00  0.000E+00
 -19.038  0.000E+00  0.000E+00
 -19.023  0.000E+00  0.000E+00
 -19.008  0.000E+00  0.000E+00
 -18.993  0.000E+00  0.000E+00
 -18.978  0.000E+00  0.000E+00
 -18.963  0.000E+00  0.000E+00
 -18.948  0.000E+00  0.000E+00
 -18.933  0.000E+00  0.000E+00
 -18.918  0.000E+00  0.000E+00
 -18.903  0.000E+00  0.000E+00
 -18.888  0.000E+00  0.000E+00
 -18.873  0.000E+00  0.000E+00
 -18.858  0.000E+00  0.000E+00
 -18.843  0.000E+00  0.000E+00
 -18.828  0.000E+00  0.000E+00
 -18.813  0.000E+00  0.000E+00
 -18.798  0.000E+00  0.000E+00
 -18.783  0.000E+00  0.000E+00
 -18.768  0.000E+00  0.000E+00
 -18.753  0.000E+00  0.000E+00
 -18.738  0.000E+00  0.000E+00
 -18.723  0.000E+00  0.000E+00
 -18.708  0.000E+00  0.000E+00
 -18.693  0.000E+00  0.000E+00
 -18.678  0.000E+00  0.000E+00
 -18.663  0.000E+00  0.000E+00
 -18.648  0.000E+00  0.000E+00
 -18.633  0.000E+00  0.000E+00
 -18.618  0.000E+00  0.000E+00
 -18.603  0.000E+00  0.000E+00
 -18.588  0.000E+00  0.000E+00
 -18.573  0.000E+00  0.000E+00
 -18.558  0.000E+00  0.000E+00
 -18.543  0.000E+00  0.000E+00
 -18.528  0.000E+00  0.000E+00
 -18.513  0.000E+00  0.000E+00
 -18.498  0.000E+00  0.000E+00
 -18.483  0.000E+00  0.000E+00
 -18.468  0.000E+00  0.000E+00
 -18.453  0.000E+00  0.000E+00
 -18.438  0.000E+00  0.000E+00
 -18.423  0.000E+00  0.000E+00
 -18.408  0.000E+00  0.000E+00
 -18.393  0.000E+00  0.000E+00
 -18.378  0.000E+00  0.000E+00
 -18.363  0.000E+00  0.000E+00
 -18.348  0.000E+00  0.000E+00
 -18.333  0.000E+00  0.000E+00
 -18.318  0.000E+00  0.000E+00
 -18.303  0.000E+00  0.000E+00
 -18.288  0.000E+00  0.000E+00
 -18.273  0.000E+00  0.000E+00
 -18.258  0.000E+00  0.000E+00
 -18.243  0.000E+00  0.000E+00
 -18.228  0.000E+00  0.000E+00
 -18.213  0.000E+00  0.000E+00
 -18.198  0.000E+00  0.000E+00
 -18.183  0.000E+00  0.000E+00
 -18.168  0.000E+00  0.000E+00
 -18.153  0.000E+00  0.000E+00
 -18.138  0.000E+00  0.000E+00
 -18.123  0.000E+00  0.000E+00
 -18.108  0.000E+00  0.000E+00
 -18.093  0.000E+00  0.000E+00
 -18.078  0.000E+00  0.000E+00
 -18.063  0.000E+00  0.000E+00
 -18.048  0.000E+00  0.000E+00
 -18.033  0.000E+00  0.000E+00
 -18.018  0.000E+00  0.000E+00
 -18.003  0.000E+00  0.000E+00
 -17.988  0.000E+00  0.000E+00
 -17.973  0.000E+00  0.000E+00
 -17.958  0.000E+00  0.000E+00
 -17.943  0.000E+00  0.000E+00
 -17.928  0.000E+00  0.000E+00
 -17.913  0.000E+00  0.000E+00
 -17.898  0.000E+00  0.000E+00
 -17.883  0.000E+00  0.000E+00
 -17.868  0.000E+00  0.000E+00
 -17.853  0.000E+00  0.000E+00
 -17.838  0.000E+00  0.000E+00
 -17.823  0.000E+00  0.000E+00
 -17.808  0.000E+00  0.000E+00
 -17.793  0.000E+00  0.000E+00
 -17.778  0.000E+00  0.000E+00
 -17.763  0.000E+00  0.000E+00
 -17.748  0.000E+00  0.000E+00
 -17.733  0.000E+00  0.000E+00
 -17.718  0.000E+00  0.000E+00
 -17.703  0.000E+00  0.000E+00
 -17.688  0.000E+00  0.000E+00
 -17.673  0.000E+00  0.000E+00
 -17.658  0.000E+00  0.000E+00
 -17.643  0.000E+00  0.000E+00
 -17.628  0.000E+00  0.000E+00
 -17.613  0.000E+00  0.000E+00
 -17.598  0.000E+00  0.000E+00
 -17.583  0.000E+00  0.000E+00
 -17.568  0.000E+00  0.000E+00
 -17.553  0.000E+00  0.000E+00
 -17.538  0.000E+00  0.000E+00
 -17.523  0.000E+00  0.000E+00
 -17.508  0.000E+00  0.000E+00
 -17.493  0.000E+00  0.000E+00
 -17.478  0.000E+00  0.000E+00
 -17.463  0.000E+00  0.000E+00
 -17.448  0.000E+00  0.000E+00
 -17.433  0.000E+00  0.000E+00
 -17.418  0.000E+00  0.000E+00
 -17.403  0.000E+00  0.000E+00
 -17.388  0.000E+00  0.000E+00
 -17.373  0.000E+00  0.000E+00
 -17.358  0.000E+00  0.000E+00
 -17.343  0.000E+00  0.000E+00
 -17.328  0.000E+00  0.000E+00
 -17.313  0.000E+00  0.000E+00
 -17.298  0.000E+00  0.000E+00
 -17.283  0.000E+00  0.000E+00
 -17.268  0.000E+00  0.000E+00
 -17.253  0.000E+00  0.000E+00
 -17.238  0.000E+00  0.000E+00
 -17.223  0.000E+00  0.000E+00
 -17.208  0.000E+00  0.000E+00
 -17.193  0.000E+00  0.000E+00
 -17.178  0.000E+00  0.000E+00
 -17.163  0.000E+00  0.000E+00
 -17.148  0.000E+00  0.000E+00
 -17.133  0.000E+00  0.000E+00
 -17.118  0.000E+00  0.000E+00
 -17.103  0.000E+00  0.000E+00
 -17.088  0.000E+00  0.000E+00
 -17.073  0.000E+00  0.000E+00
 -17.058  0.000E+00  0.000E+00
 -17.043  0.000E+00  0.000E+00
 -17.028  0.000E+00  0.000E+00
 -17.013  0.000E+00  0.000E+00
 -16.998  0.000E+00  0.000E+00
 -16.983  0.000E+00  0.000E+00
 -16.968  0.000E+00  0.000E+00
 -16.953  0.000E+00  0.000E+00
 -16.938  0.000E+00  0.000E+00
 -16.923  0.000E+00  0.000E+00
 -16.908  0.000E+00  0.000E+00
 -16.893  0.000E+00  0.000E+00
 -16.878  0.000E+00  0.000E+00
 -16.863  0.000E+00  0.000E+00
 -16.848  0.000E+00  0.000E+00
 -16.833  0.000E+00  0.000E+00
 -16.818  0.000E+00  0.000E+00
 -16.803  0.000E+00  0.000E+00
 -16.788  0.000E+00  0.000E+00
 -16.773  0.000E+00  0.000E+00
 -16.758  0.000E+00  0.000E+00
 -16.743  0.000E+00  0.000E+00
 -16.728  0.000E+00  0.000E+00
 -16.713  0.000E+00  0.000E+00
 -16.698  0.000E+00  0.000E+00
 -16.683  0.000E+00  0.000E+00
 -16.668  0.000E+00  0.000E+00
 -16.653  0.000E+00  0.000E+00
 -16.638  0.000E+00  0.000E+00
 -16.623  0.000E+00  0.000E+00
 -16.608  0.000E+00  0.000E+00
 -16.593  0.000E+00  0.000E+00
 -16.578  0.000E+00  0.000E+00
 -16.563  0.000E+00  0.000E+00
 -16.548  0.000E+00  0.000E+00
 -16.533  0.000E+00  0.000E+00
 -16.518  0.000E+00  0.000E+00
 -16.503  0.000E+00  0.000E+00
 -16.488  0.000E+00  0.000E+00
 -16.473  0.000E+00  0.000E+00
 -16.458  0.000E+00  0.000E+00
 -16.443  0.000E+00  0.000E+00
 -16.428  0.000E+00  0.000E+00
 -16.413  0.000E+00  0.000E+00
 -16.398  0.000E+00  0.000E+00
 -16.383  0.000E+00  0.000E+00
 -16.368  0.000E+00  0.000E+00
 -16.353  0.000E+00  0.000E+00
 -16.338  0.000E+00  0.000E+00
 -16.323  0.000E+00  0.000E+00
 -16.308  0.000E+00  0.000E+00
 -16.293  0.000E+00  0.000E+00
 -16.278  0.000E+00  0.000E+00
 -16.263  0.000E+00  0.000E+00
 -16.248  0.000E+00  0.000E+00
 -16.233  0.000E+00  0.000E+00
 -16.218  0.000E+00  0.000E+00
 -16.203  0.000E+00  0.000E+00
 -16.188  0.000E+00  0.000E+00
 -16.173  0.000E+00  0.000E+00
 -16.158  0.000E+00  0.000E+00
 -16.143  0.000E+00  0.000E+00
 -16.128  0.000E+00  0.000E+00
 -16.113  0.000E+00  0.000E+00
 -16.098  0.000E+00  0.000E+00
 -16.083  0.000E+00  0.000E+00
 -16.068  0.000E+00  0.000E+00
 -16.053  0.000E+00  0.000E+00
 -16.038  0.000E+00  0.000E+00
 -16.023  0.000E+00  0.000E+00
 -16.008  0.000E+00  0.000E+00
 -15.993  0.000E+00  0.000E+00
 -15.978  0.000E+00  0.000E+00
 -15.963  0.000E+00  0.000E+00
 -15.948  0.000E+00  0.000E+00
 -15.933  0.000E+00  0.000E+00
 -15.918  0.000E+00  0.000E+00
 -15.903  0.000E+00  0.000E+00
 -15.888  0.000E+00  0.000E+00
 -15.873  0.000E+00  0.000E+00
 -15.858  0.000E+00  0.000E+00
 -15.843  0.000E+00  0.000E+00
 -15.828  0.000E+00  0.000E+00
 -15.813  0.000E+00  0.000E+00
 -15.798  0.000E+00  0.000E+00
 -15.783  0.000E+00  0.000E+00
 -15.768  0.000E+00  0.000E+00
 -15.753  0.000E+00  0.000E+00
 -15.738  0.000E+00  0.000E+00
 -15.723  0.000E+00  0.000E+00
 -15.708  0.000E+00  0.000E+00
 -15.693  0.000E+00  0.000E+00
 -15.678  0.000E+00  0.000E+00
 -15.663  0.000E+00  0.000E+00
 -15.648  0.000E+00  0.000E+00
 -15.633  0.000E+00  0.000E+00
 -15.618  0.000E+00  0.000E+00
 -15.603  0.000E+00  0.000E+00
 -15.588  0.000E+00  0.000E+00
 -15.573  0.000E+00  0.000E+00
 -15.558  0.000E+00  0.000E+00
 -15.543  0.000E+00  0.000E+00
 -15.528  0.000E+00  0.000E+00
 -15.513  0.000E+00  0.000E+00
 -15.498  0.000E+00  0.000E+00
 -15.483  0.000E+00  0.000E+00
 -15.468  0.000E+00  0.000E+00
 -15.453  0.000E+00  0.000E+00
 -15.438  0.000E+00  0.000E+00
 -15.423  0.000E+00  0.000E+00
 -15.408  0.000E+00  0.000E+00
 -15.393  0.000E+00  0.000E+00
 -15.378  0.000E+00  0.000E+00
 -15.363  0.000E+00  0.000E+00
 -15.348  0.000E+00  0.000E+00
 -15.333  0.000E+00  0.000E+00
 -15.318  0.000E+00  0.000E+00
 -15.303  0.000E+00  0.000E+00
 -15.288  0.000E+00  0.000E+00
 -15.273  0.000E+00  0.000E+00
 -15.258  0.000E+00  0.000E+00
 -15.243  0.000E+00  0.000E+00
 -15.228  0.000E+00  0.000E+00
 -15.213  0.000E+00  0.000E+00
 -15.198  0.000E+00  0.000E+00
 -15.183  0.000E+00  0.000E+00
 -15.168  0.000E+00  0.000E+00
 -15.153  0.000E+00  0.000E+00
 -15.138  0.000E+00  0.000E+00
 -15.123  0.000E+00  0.000E+00
 -15.108  0.000E+00  0.000E+00
 -15.093  0.000E+00  0.000E+00
 -15.078  0.000E+00  0.000E+00
 -15.063  0.000E+00  0.000E+00
 -15.048  0.000E+00  0.000E+00
 -15.033  0.000E+00  0.000E+00
 -15.018  0.000E+00  0.000E+00
 -15.003  0.000E+00  0.000E+00
 -14.988  0.000E+00  0.000E+00
 -14.973  0.000E+00  0.000E+00
 -14.958  0.000E+00  0.000E+00
 -14.943  0.000E+00  0.000E+00
 -14.928  0.000E+00  0.000E+00
 -14.913  0.000E+00  0.000E+00
 -14.898  0.000E+00  0.000E+00
 -14.883  0.000E+00  0.000E+00
 -14.868  0.000E+00  0.000E+00
 -14.853  0.000E+00  0.000E+00
 -14.838  0.000E+00  0.000E+00
 -14.823  0.000E+00  0.000E+00
 -14.808  0.000E+00  0.000E+00
 -14.793  0.000E+00  0.000E+00
 -14.778  0.000E+00  0.000E+00
 -14.763  0.000E+00  0.000E+00
 -14.748  0.000E+00  0.000E+00
 -14.733  0.000E+00  0.000E+00
 -14.718  0.000E+00  0.000E+00
 -14.703  0.000E+00  0.000E+00
 -14.688  0.000E+00  0.000E+00
 -14.673  0.000E+00  0.000E+00
 -14.658  0.000E+00  0.000E+00
 -14.643  0.000E+00  0.000E+00
 -14.628  0.000E+00  0.000E+00
 -14.613  0.000E+00  0.000E+00
 -14.598  0.000E+00  0.000E+00
 -14.583  0.000E+00  0.000E+00
 -14.568  0.000E+00  0.000E+00
 -14.553  0.000E+00  0.000E+00
 -14.538  0.000E+00  0.000E+00
 -14.523  0.000E+00  0.000E+00
 -14.508  0.000E+00  0.000E+00
 -14.493  0.000E+00  0.000E+00
 -14.478  0.000E+00  0.000E+00
 -14.463  0.000E+00  0.000E+00
 -14.448  0.000E+00  0.000E+00
 -14.433  0.000E+00  0.000E+00
 -14.418  0.000E+00  0.000E+00
 -14.403  0.000E+00  0.000E+00
 -14.388  0.000E+00  0.000E+00
 -14.373  0.000E+00  0.000E+00
 -14.358  0.000E+00  0.000E+00
 -14.343  0.000E+00  0.000E+00
 -14.328  0.000E+00  0.000E+00
 -14.313  0.000E+00  0.000E+00
 -14.298  0.000E+00  0.000E+00
 -14.283  0.000E+00  0.000E+00
 -14.268  0.000E+00  0.000E+00
 -14.253  0.000E+00  0.000E+00
 -14.238  0.000E+00  0.000E+00
 -14.223  0.000E+00  0.000E+00
 -14.208  0.000E+00  0.000E+00
 -14.193  0.000E+00  0.000E+00
 -14.178  0.000E+00  0.000E+00
 -14.163  0.623E-22  0.623E-22
 -14.148  0.980E-20  0.980E-20
 -14.133  0.258E-19  0.258E-19
 -14.118  0.558E-19  0.558E-19
 -14.103  0.118E-18  0.118E-18
 -14.088  0.211E-18  0.211E-18
 -14.073  0.389E-18  0.389E-18
 -14.058  0.661E-18  0.661E-18
 -14.043  0.112E-17  0.112E-17
 -14.028  0.194E-17  0.194E-17
 -14.013  0.324E-17  0.324E-17
 -13.998  0.538E-17  0.538E-17
 -13.983  0.897E-17  0.897E-17
 -13.968  0.147E-16  0.147E-16
 -13.953  0.240E-16  0.240E-16
 -13.938  0.391E-16  0.391E-16
 -13.923  0.631E-16  0.631E-16
 -13.908  0.101E-15  0.101E-15
 -13.893  0.161E-15  0.161E-15
 -13.878  0.256E-15  0.256E-15
 -13.863  0.403E-15  0.403E-15
 -13.848  0.632E-15  0.632E-15
 -13.833  0.984E-15  0.984E-15
 -13.818  0.152E-14  0.152E-14
 -13.803  0.235E-14  0.235E-14
 -13.788  0.359E-14  0.359E-14
 -13.773  0.547E-14  0.547E-14
 -13.758  0.828E-14  0.828E-14
 -13.743  0.124E-13  0.124E-13
 -13.728  0.186E-13  0.186E-13
 -13.713  0.277E-13  0.277E-13
 -13.698  0.409E-13  0.409E-13
 -13.683  0.602E-13  0.602E-13
 -13.668  0.879E-13  0.879E-13
 -13.653  0.128E-12  0.128E-12
 -13.638  0.185E-12  0.185E-12
 -13.623  0.265E-12  0.265E-12
 -13.608  0.379E-12  0.379E-12
 -13.593  0.538E-12  0.538E-12
 -13.578  0.760E-12  0.760E-12
 -13.563  0.107E-11  0.107E-11
 -13.548  0.149E-11  0.149E-11
 -13.533  0.207E-11  0.207E-11
 -13.518  0.286E-11  0.286E-11
 -13.503  0.393E-11  0.393E-11
 -13.488  0.537E-11  0.537E-11
 -13.473  0.729E-11  0.729E-11
 -13.458  0.985E-11  0.985E-11
 -13.443  0.132E-10  0.132E-10
 -13.428  0.177E-10  0.177E-10
 -13.413  0.235E-10  0.235E-10
 -13.398  0.311E-10  0.311E-10
 -13.383  0.409E-10  0.409E-10
 -13.368  0.535E-10  0.535E-10
 -13.353  0.697E-10  0.697E-10
 -13.338  0.903E-10  0.903E-10
 -13.323  0.116E-09  0.116E-09
 -13.308  0.149E-09  0.149E-09
 -13.293  0.190E-09  0.190E-09
 -13.278  0.242E-09  0.242E-09
 -13.263  0.305E-09  0.305E-09
 -13.248  0.384E-09  0.384E-09
 -13.233  0.481E-09  0.481E-09
 -13.218  0.599E-09  0.599E-09
 -13.203  0.744E-09  0.744E-09
 -13.188  0.919E-09  0.919E-09
 -13.173  0.113E-08  0.113E-08
 -13.158  0.139E-08  0.139E-08
 -13.143  0.169E-08  0.169E-08
 -13.128  0.206E-08  0.206E-08
 -13.113  0.249E-08  0.249E-08
 -13.098  0.301E-08  0.301E-08
 -13.083  0.362E-08  0.362E-08
 -13.068  0.434E-08  0.434E-08
 -13.053  0.519E-08  0.519E-08
 -13.038  0.618E-08  0.618E-08
 -13.023  0.734E-08  0.734E-08
 -13.008  0.870E-08  0.870E-08
 -12.993  0.103E-07  0.103E-07
 -12.978  0.121E-07  0.121E-07
 -12.963  0.143E-07  0.143E-07
 -12.948  0.167E-07  0.167E-07
 -12.933  0.196E-07  0.196E-07
 -12.918  0.229E-07  0.229E-07
 -12.903  0.267E-07  0.267E-07
 -12.888  0.310E-07  0.310E-07
 -12.873  0.360E-07  0.360E-07
 -12.858  0.417E-07  0.417E-07
 -12.843  0.482E-07  0.482E-07
 -12.828  0.557E-07  0.557E-07
 -12.813  0.641E-07  0.641E-07
 -12.798  0.737E-07  0.737E-07
 -12.783  0.845E-07  0.845E-07
 -12.768  0.968E-07  0.968E-07
 -12.753  0.111E-06  0.111E-06
 -12.738  0.126E-06  0.126E-06
 -12.723  0.143E-06  0.143E-06
 -12.708  0.163E-06  0.163E-06
 -12.693  0.184E-06  0.184E-06
 -12.678  0.208E-06  0.208E-06
 -12.663  0.235E-06  0.235E-06
 -12.648  0.264E-06  0.264E-06
 -12.633  0.297E-06  0.297E-06
 -12.618  0.333E-06  0.333E-06
 -12.603  0.372E-06  0.372E-06
 -12.588  0.415E-06  0.415E-06
 -12.573  0.462E-06  0.462E-06
 -12.558  0.514E-06  0.514E-06
 -12.543  0.570E-06  0.570E-06
 -12.528  0.631E-06  0.631E-06
 -12.513  0.698E-06  0.698E-06
 -12.498  0.771E-06  0.771E-06
 -12.483  0.850E-06  0.850E-06
 -12.468  0.936E-06  0.936E-06
 -12.453  0.103E-05  0.103E-05
 -12.438  0.113E-05  0.113E-05
 -12.423  0.124E-05  0.124E-05
 -12.408  0.136E-05  0.136E-05
 -12.393  0.149E-05  0.149E-05
 -12.378  0.164E-05  0.164E-05
 -12.363  0.180E-05  0.180E-05
 -12.348  0.197E-05  0.197E-05
 -12.333  0.216E-05  0.216E-05
 -12.318  0.237E-05  0.237E-05
 -12.303  0.260E-05  0.260E-05
 -12.288  0.286E-05  0.286E-05
 -12.273  0.315E-05  0.315E-05
 -12.258  0.347E-05  0.347E-05
 -12.243  0.382E-05  0.382E-05
 -12.228  0.422E-05  0.422E-05
 -12.213  0.467E-05  0.467E-05
 -12.198  0.517E-05  0.517E-05
 -12.183  0.573E-05  0.573E-05
 -12.168  0.635E-05  0.635E-05
 -12.153  0.705E-05  0.705E-05
 -12.138  0.784E-05  0.784E-05
 -12.123  0.871E-05  0.871E-05
 -12.108  0.969E-05  0.969E-05
 -12.093  0.108E-04  0.108E-04
 -12.078  0.120E-04  0.120E-04
 -12.063  0.133E-04  0.133E-04
 -12.048  0.148E-04  0.148E-04
 -12.033  0.164E-04  0.164E-04
 -12.018  0.182E-04  0.182E-04
 -12.003  0.201E-04  0.201E-04
 -11.988  0.223E-04  0.223E-04
 -11.973  0.245E-04  0.245E-04
 -11.958  0.270E-04  0.270E-04
 -11.943  0.296E-04  0.296E-04
 -11.928  0.324E-04  0.324E-04
 -11.913  0.354E-04  0.354E-04
 -11.898  0.385E-04  0.385E-04
 -11.883  0.417E-04  0.417E-04
 -11.868  0.451E-04  0.451E-04
 -11.853  0.486E-04  0.486E-04
 -11.838  0.522E-04  0.522E-04
 -11.823  0.559E-04  0.559E-04
 -11.808  0.596E-04  0.596E-04
 -11.793  0.634E-04  0.634E-04
 -11.778  0.672E-04  0.672E-04
 -11.763  0.710E-04  0.710E-04
 -11.748  0.747E-04  0.747E-04
 -11.733  0.785E-04  0.785E-04
 -11.718  0.822E-04  0.822E-04
 -11.703  0.860E-04  0.860E-04
 -11.688  0.899E-04  0.899E-04
 -11.673  0.938E-04  0.938E-04
 -11.658  0.980E-04  0.980E-04
 -11.643  0.102E-03  0.102E-03
 -11.628  0.107E-03  0.107E-03
 -11.613  0.113E-03  0.113E-03
 -11.598  0.120E-03  0.120E-03
 -11.583  0.127E-03  0.127E-03
 -11.568  0.137E-03  0.137E-03
 -11.553  0.148E-03  0.148E-03
 -11.538  0.162E-03  0.162E-03
 -11.523  0.179E-03  0.179E-03
 -11.508  0.200E-03  0.200E-03
 -11.493  0.225E-03  0.225E-03
 -11.478  0.255E-03  0.255E-03
 -11.463  0.292E-03  0.292E-03
 -11.448  0.335E-03  0.335E-03
 -11.433  0.388E-03  0.388E-03
 -11.418  0.449E-03  0.449E-03
 -11.403  0.521E-03  0.521E-03
 -11.388  0.605E-03  0.605E-03
 -11.373  0.703E-03  0.703E-03
 -11.358  0.815E-03  0.815E-03
 -11.343  0.943E-03  0.943E-03
 -11.328  0.109E-02  0.109E-02
 -11.313  0.125E-02  0.125E-02
 -11.298  0.144E-02  0.144E-02
 -11.283  0.164E-02  0.164E-02
 -11.268  0.187E-02  0.187E-02
 -11.253  0.212E-02  0.212E-02
 -11.238  0.239E-02  0.239E-02
 -11.223  0.269E-02  0.269E-02
 -11.208  0.302E-02  0.302E-02
 -11.193  0.337E-02  0.337E-02
 -11.178  0.375E-02  0.375E-02
 -11.163  0.416E-02  0.416E-02
 -11.148  0.460E-02  0.460E-02
 -11.133  0.507E-02  0.507E-02
 -11.118  0.557E-02  0.557E-02
 -11.103  0.611E-02  0.611E-02
 -11.088  0.670E-02  0.670E-02
 -11.073  0.732E-02  0.732E-02
 -11.058  0.800E-02  0.800E-02
 -11.043  0.873E-02  0.873E-02
 -11.028  0.953E-02  0.953E-02
 -11.013  0.104E-01  0.104E-01
 -10.998  0.114E-01  0.114E-01
 -10.983  0.124E-01  0.124E-01
 -10.968  0.136E-01  0.136E-01
 -10.953  0.148E-01  0.148E-01
 -10.938  0.163E-01  0.163E-01
 -10.923  0.179E-01  0.179E-01
 -10.908  0.196E-01  0.196E-01
 -10.893  0.216E-01  0.216E-01
 -10.878  0.237E-01  0.237E-01
 -10.863  0.261E-01  0.261E-01
 -10.848  0.287E-01  0.287E-01
 -10.833  0.316E-01  0.316E-01
 -10.818  0.347E-01  0.347E-01
 -10.803  0.381E-01  0.381E-01
 -10.788  0.418E-01  0.418E-01
 -10.773  0.458E-01  0.458E-01
 -10.758  0.501E-01  0.501E-01
 -10.743  0.546E-01  0.546E-01
 -10.728  0.593E-01  0.593E-01
 -10.713  0.643E-01  0.643E-01
 -10.698  0.695E-01  0.695E-01
 -10.683  0.749E-01  0.749E-01
 -10.668  0.804E-01  0.804E-01
 -10.653  0.859E-01  0.859E-01
 -10.638  0.916E-01  0.916E-01
 -10.623  0.972E-01  0.972E-01
 -10.608  0.103E+00  0.103E+00
 -10.593  0.108E+00  0.108E+00
 -10.578  0.114E+00  0.114E+00
 -10.563  0.119E+00  0.119E+00
 -10.548  0.124E+00  0.124E+00
 -10.533  0.129E+00  0.129E+00
 -10.518  0.133E+00  0.133E+00
 -10.503  0.137E+00  0.137E+00
 -10.488  0.140E+00  0.140E+00
 -10.473  0.144E+00  0.144E+00
 -10.458  0.146E+00  0.146E+00
 -10.443  0.149E+00  0.149E+00
 -10.428  0.150E+00  0.150E+00
 -10.413  0.152E+00  0.152E+00
 -10.398  0.153E+00  0.153E+00
 -10.383  0.153E+00  0.153E+00
 -10.368  0.153E+00  0.153E+00
 -10.353  0.153E+00  0.153E+00
 -10.338  0.152E+00  0.152E+00
 -10.323  0.150E+00  0.150E+00
 -10.308  0.149E+00  0.149E+00
 -10.293  0.147E+00  0.147E+00
 -10.278  0.144E+00  0.144E+00
 -10.263  0.141E+00  0.141E+00
 -10.248  0.138E+00  0.138E+00
 -10.233  0.135E+00  0.135E+00
 -10.218  0.131E+00  0.131E+00
 -10.203  0.127E+00  0.127E+00
 -10.188  0.123E+00  0.123E+00
 -10.173  0.118E+00  0.118E+00
 -10.158  0.114E+00  0.114E+00
 -10.143  0.109E+00  0.109E+00
 -10.128  0.104E+00  0.104E+00
 -10.113  0.989E-01  0.989E-01
 -10.098  0.937E-01  0.937E-01
 -10.083  0.886E-01  0.886E-01
 -10.068  0.834E-01  0.834E-01
 -10.053  0.782E-01  0.782E-01
 -10.038  0.731E-01  0.731E-01
 -10.023  0.680E-01  0.680E-01
 -10.008  0.630E-01  0.630E-01
  -9.993  0.582E-01  0.582E-01
  -9.978  0.535E-01  0.535E-01
  -9.963  0.490E-01  0.490E-01
  -9.948  0.447E-01  0.447E-01
  -9.933  0.406E-01  0.406E-01
  -9.918  0.367E-01  0.367E-01
  -9.903  0.331E-01  0.331E-01
  -9.888  0.297E-01  0.297E-01
  -9.873  0.265E-01  0.265E-01
  -9.858  0.236E-01  0.236E-01
  -9.843  0.209E-01  0.209E-01
  -9.828  0.184E-01  0.184E-01
  -9.813  0.162E-01  0.162E-01
  -9.798  0.142E-01  0.142E-01
  -9.783  0.124E-01  0.124E-01
  -9.768  0.108E-01  0.108E-01
  -9.753  0.936E-02  0.936E-02
  -9.738  0.811E-02  0.811E-02
  -9.723  0.703E-02  0.703E-02
  -9.708  0.609E-02  0.609E-02
  -9.693  0.529E-02  0.529E-02
  -9.678  0.462E-02  0.462E-02
  -9.663  0.406E-02  0.406E-02
  -9.648  0.362E-02  0.362E-02
  -9.633  0.327E-02  0.327E-02
  -9.618  0.303E-02  0.303E-02
  -9.603  0.288E-02  0.288E-02
  -9.588  0.282E-02  0.282E-02
  -9.573  0.285E-02  0.285E-02
  -9.558  0.297E-02  0.297E-02
  -9.543  0.319E-02  0.319E-02
  -9.528  0.351E-02  0.351E-02
  -9.513  0.394E-02  0.394E-02
  -9.498  0.449E-02  0.449E-02
  -9.483  0.517E-02  0.517E-02
  -9.468  0.599E-02  0.599E-02
  -9.453  0.696E-02  0.696E-02
  -9.438  0.811E-02  0.811E-02
  -9.423  0.945E-02  0.945E-02
  -9.408  0.110E-01  0.110E-01
  -9.393  0.128E-01  0.128E-01
  -9.378  0.148E-01  0.148E-01
  -9.363  0.171E-01  0.171E-01
  -9.348  0.197E-01  0.197E-01
  -9.333  0.226E-01  0.226E-01
  -9.318  0.258E-01  0.258E-01
  -9.303  0.294E-01  0.294E-01
  -9.288  0.334E-01  0.334E-01
  -9.273  0.377E-01  0.377E-01
  -9.258  0.425E-01  0.425E-01
  -9.243  0.476E-01  0.476E-01
  -9.228  0.532E-01  0.532E-01
  -9.213  0.592E-01  0.592E-01
  -9.198  0.655E-01  0.655E-01
  -9.183  0.723E-01  0.723E-01
  -9.168  0.794E-01  0.794E-01
  -9.153  0.868E-01  0.868E-01
  -9.138  0.945E-01  0.945E-01
  -9.123  0.103E+00  0.103E+00
  -9.108  0.111E+00  0.111E+00
  -9.093  0.119E+00  0.119E+00
  -9.078  0.128E+00  0.128E+00
  -9.063  0.136E+00  0.136E+00
  -9.048  0.145E+00  0.145E+00
  -9.033  0.153E+00  0.153E+00
  -9.018  0.161E+00  0.161E+00
  -9.003  0.169E+00  0.169E+00
  -8.988  0.177E+00  0.177E+00
  -8.973  0.184E+00  0.184E+00
  -8.958  0.191E+00  0.191E+00
  -8.943  0.197E+00  0.197E+00
  -8.928  0.202E+00  0.202E+00
  -8.913  0.207E+00  0.207E+00
  -8.898  0.212E+00  0.212E+00
  -8.883  0.215E+00  0.215E+00
  -8.868  0.218E+00  0.218E+00
  -8.853  0.220E+00  0.220E+00
  -8.838  0.221E+00  0.221E+00
  -8.823  0.222E+00  0.222E+00
  -8.808  0.222E+00  0.222E+00
  -8.793  0.221E+00  0.221E+00
  -8.778  0.220E+00  0.220E+00
  -8.763  0.217E+00  0.217E+00
  -8.748  0.215E+00  0.215E+00
  -8.733  0.212E+00  0.212E+00
  -8.718  0.208E+00  0.208E+00
  -8.703  0.204E+00  0.204E+00
  -8.688  0.200E+00  0.200E+00
  -8.673  0.196E+00  0.196E+00
  -8.658  0.191E+00  0.191E+00
  -8.643  0.186E+00  0.186E+00
  -8.628  0.182E+00  0.182E+00
  -8.613  0.177E+00  0.177E+00
  -8.598  0.172E+00  0.172E+00
  -8.583  0.168E+00  0.168E+00
  -8.568  0.163E+00  0.163E+00
  -8.553  0.159E+00  0.159E+00
  -8.538  0.155E+00  0.155E+00
  -8.523  0.150E+00  0.150E+00
  -8.508  0.146E+00  0.146E+00
  -8.493  0.143E+00  0.143E+00
  -8.478  0.139E+00  0.139E+00
  -8.463  0.135E+00  0.135E+00
  -8.448  0.132E+00  0.132E+00
  -8.433  0.128E+00  0.128E+00
  -8.418  0.125E+00  0.125E+00
  -8.403  0.122E+00  0.122E+00
  -8.388  0.118E+00  0.118E+00
  -8.373  0.115E+00  0.115E+00
  -8.358  0.111E+00  0.111E+00
  -8.343  0.108E+00  0.108E+00
  -8.328  0.104E+00  0.104E+00
  -8.313  0.101E+00  0.101E+00
  -8.298  0.974E-01  0.974E-01
  -8.283  0.938E-01  0.938E-01
  -8.268  0.901E-01  0.901E-01
  -8.253  0.864E-01  0.864E-01
  -8.238  0.827E-01  0.827E-01
  -8.223  0.789E-01  0.789E-01
  -8.208  0.752E-01  0.752E-01
  -8.193  0.714E-01  0.714E-01
  -8.178  0.677E-01  0.677E-01
  -8.163  0.640E-01  0.640E-01
  -8.148  0.604E-01  0.604E-01
  -8.133  0.569E-01  0.569E-01
  -8.118  0.534E-01  0.534E-01
  -8.103  0.500E-01  0.500E-01
  -8.088  0.468E-01  0.468E-01
  -8.073  0.437E-01  0.437E-01
  -8.058  0.407E-01  0.407E-01
  -8.043  0.378E-01  0.378E-01
  -8.028  0.351E-01  0.351E-01
  -8.013  0.325E-01  0.325E-01
  -7.998  0.301E-01  0.301E-01
  -7.983  0.278E-01  0.278E-01
  -7.968  0.257E-01  0.257E-01
  -7.953  0.237E-01  0.237E-01
  -7.938  0.219E-01  0.219E-01
  -7.923  0.202E-01  0.202E-01
  -7.908  0.187E-01  0.187E-01
  -7.893  0.174E-01  0.174E-01
  -7.878  0.162E-01  0.162E-01
  -7.863  0.151E-01  0.151E-01
  -7.848  0.142E-01  0.142E-01
  -7.833  0.134E-01  0.134E-01
  -7.818  0.128E-01  0.128E-01
  -7.803  0.122E-01  0.122E-01
  -7.788  0.119E-01  0.119E-01
  -7.773  0.116E-01  0.116E-01
  -7.758  0.115E-01  0.115E-01
  -7.743  0.115E-01  0.115E-01
  -7.728  0.117E-01  0.117E-01
  -7.713  0.119E-01  0.119E-01
  -7.698  0.122E-01  0.122E-01
  -7.683  0.127E-01  0.127E-01
  -7.668  0.132E-01  0.132E-01
  -7.653  0.138E-01  0.138E-01
  -7.638  0.145E-01  0.145E-01
  -7.623  0.153E-01  0.153E-01
  -7.608  0.161E-01  0.161E-01
  -7.593  0.171E-01  0.171E-01
  -7.578  0.180E-01  0.180E-01
  -7.563  0.190E-01  0.190E-01
  -7.548  0.200E-01  0.200E-01
  -7.533  0.211E-01  0.211E-01
  -7.518  0.222E-01  0.222E-01
  -7.503  0.233E-01  0.233E-01
  -7.488  0.244E-01  0.244E-01
  -7.473  0.255E-01  0.255E-01
  -7.458  0.266E-01  0.266E-01
  -7.443  0.277E-01  0.277E-01
  -7.428  0.287E-01  0.287E-01
  -7.413  0.298E-01  0.298E-01
  -7.398  0.308E-01  0.308E-01
  -7.383  0.317E-01  0.317E-01
  -7.368  0.326E-01  0.326E-01
  -7.353  0.334E-01  0.334E-01
  -7.338  0.342E-01  0.342E-01
  -7.323  0.349E-01  0.349E-01
  -7.308  0.356E-01  0.356E-01
  -7.293  0.361E-01  0.361E-01
  -7.278  0.366E-01  0.366E-01
  -7.263  0.370E-01  0.370E-01
  -7.248  0.373E-01  0.373E-01
  -7.233  0.375E-01  0.375E-01
  -7.218  0.376E-01  0.376E-01
  -7.203  0.377E-01  0.377E-01
  -7.188  0.376E-01  0.376E-01
  -7.173  0.375E-01  0.375E-01
  -7.158  0.373E-01  0.373E-01
  -7.143  0.370E-01  0.370E-01
  -7.128  0.366E-01  0.366E-01
  -7.113  0.361E-01  0.361E-01
  -7.098  0.356E-01  0.356E-01
  -7.083  0.350E-01  0.350E-01
  -7.068  0.344E-01  0.344E-01
  -7.053  0.337E-01  0.337E-01
  -7.038  0.330E-01  0.330E-01
  -7.023  0.322E-01  0.322E-01
  -7.008  0.315E-01  0.315E-01
  -6.993  0.307E-01  0.307E-01
  -6.978  0.299E-01  0.299E-01
  -6.963  0.292E-01  0.292E-01
  -6.948  0.284E-01  0.284E-01
  -6.933  0.277E-01  0.277E-01
  -6.918  0.270E-01  0.270E-01
  -6.903  0.263E-01  0.263E-01
  -6.888  0.256E-01  0.256E-01
  -6.873  0.250E-01  0.250E-01
  -6.858  0.245E-01  0.245E-01
  -6.843  0.240E-01  0.240E-01
  -6.828  0.235E-01  0.235E-01
  -6.813  0.231E-01  0.231E-01
  -6.798  0.227E-01  0.227E-01
  -6.783  0.223E-01  0.223E-01
  -6.768  0.221E-01  0.221E-01
  -6.753  0.218E-01  0.218E-01
  -6.738  0.216E-01  0.216E-01
  -6.723  0.214E-01  0.214E-01
  -6.708  0.213E-01  0.213E-01
  -6.693  0.212E-01  0.212E-01
  -6.678  0.211E-01  0.211E-01
  -6.663  0.211E-01  0.211E-01
  -6.648  0.210E-01  0.210E-01
  -6.633  0.210E-01  0.210E-01
  -6.618  0.210E-01  0.210E-01
  -6.603  0.210E-01  0.210E-01
  -6.588  0.209E-01  0.209E-01
  -6.573  0.209E-01  0.209E-01
  -6.558  0.209E-01  0.209E-01
  -6.543  0.208E-01  0.208E-01
  -6.528  0.207E-01  0.207E-01
  -6.513  0.207E-01  0.207E-01
  -6.498  0.206E-01  0.206E-01
  -6.483  0.205E-01  0.205E-01
  -6.468  0.203E-01  0.203E-01
  -6.453  0.202E-01  0.202E-01
  -6.438  0.200E-01  0.200E-01
  -6.423  0.199E-01  0.199E-01
  -6.408  0.197E-01  0.197E-01
  -6.393  0.195E-01  0.195E-01
  -6.378  0.193E-01  0.193E-01
  -6.363  0.191E-01  0.191E-01
  -6.348  0.190E-01  0.190E-01
  -6.333  0.188E-01  0.188E-01
  -6.318  0.186E-01  0.186E-01
  -6.303  0.185E-01  0.185E-01
  -6.288  0.183E-01  0.183E-01
  -6.273  0.182E-01  0.182E-01
  -6.258  0.180E-01  0.180E-01
  -6.243  0.179E-01  0.179E-01
  -6.228  0.178E-01  0.178E-01
  -6.213  0.177E-01  0.177E-01
  -6.198  0.177E-01  0.177E-01
  -6.183  0.176E-01  0.176E-01
  -6.168  0.175E-01  0.175E-01
  -6.153  0.175E-01  0.175E-01
  -6.138  0.174E-01  0.174E-01
  -6.123  0.174E-01  0.174E-01
  -6.108  0.174E-01  0.174E-01
  -6.093  0.173E-01  0.173E-01
  -6.078  0.173E-01  0.173E-01
  -6.063  0.172E-01  0.172E-01
  -6.048  0.172E-01  0.172E-01
  -6.033  0.171E-01  0.171E-01
  -6.018  0.170E-01  0.170E-01
  -6.003  0.170E-01  0.170E-01
  -5.988  0.169E-01  0.169E-01
  -5.973  0.168E-01  0.168E-01
  -5.958  0.167E-01  0.167E-01
  -5.943  0.165E-01  0.165E-01
  -5.928  0.164E-01  0.164E-01
  -5.913  0.163E-01  0.163E-01
  -5.898  0.161E-01  0.161E-01
  -5.883  0.159E-01  0.159E-01
  -5.868  0.157E-01  0.157E-01
  -5.853  0.156E-01  0.156E-01
  -5.838  0.154E-01  0.154E-01
  -5.823  0.152E-01  0.152E-01
  -5.808  0.149E-01  0.149E-01
  -5.793  0.147E-01  0.147E-01
  -5.778  0.145E-01  0.145E-01
  -5.763  0.143E-01  0.143E-01
  -5.748  0.140E-01  0.140E-01
  -5.733  0.138E-01  0.138E-01
  -5.718  0.136E-01  0.136E-01
  -5.703  0.133E-01  0.133E-01
  -5.688  0.131E-01  0.131E-01
  -5.673  0.129E-01  0.129E-01
  -5.658  0.126E-01  0.126E-01
  -5.643  0.124E-01  0.124E-01
  -5.628  0.122E-01  0.122E-01
  -5.613  0.120E-01  0.120E-01
  -5.598  0.118E-01  0.118E-01
  -5.583  0.117E-01  0.117E-01
  -5.568  0.115E-01  0.115E-01
  -5.553  0.114E-01  0.114E-01
  -5.538  0.113E-01  0.113E-01
  -5.523  0.111E-01  0.111E-01
  -5.508  0.110E-01  0.110E-01
  -5.493  0.110E-01  0.110E-01
  -5.478  0.109E-01  0.109E-01
  -5.463  0.109E-01  0.109E-01
  -5.448  0.108E-01  0.108E-01
  -5.433  0.108E-01  0.108E-01
  -5.418  0.108E-01  0.108E-01
  -5.403  0.108E-01  0.108E-01
  -5.388  0.109E-01  0.109E-01
  -5.373  0.109E-01  0.109E-01
  -5.358  0.109E-01  0.109E-01
  -5.343  0.109E-01  0.109E-01
  -5.328  0.109E-01  0.109E-01
  -5.313  0.109E-01  0.109E-01
  -5.298  0.109E-01  0.109E-01
  -5.283  0.109E-01  0.109E-01
  -5.268  0.109E-01  0.109E-01
  -5.253  0.109E-01  0.109E-01
  -5.238  0.108E-01  0.108E-01
  -5.223  0.107E-01  0.107E-01
  -5.208  0.106E-01  0.106E-01
  -5.193  0.104E-01  0.104E-01
  -5.178  0.103E-01  0.103E-01
  -5.163  0.101E-01  0.101E-01
  -5.148  0.987E-02  0.987E-02
  -5.133  0.963E-02  0.963E-02
  -5.118  0.938E-02  0.938E-02
  -5.103  0.911E-02  0.911E-02
  -5.088  0.883E-02  0.883E-02
  -5.073  0.853E-02  0.853E-02
  -5.058  0.823E-02  0.823E-02
  -5.043  0.793E-02  0.793E-02
  -5.028  0.762E-02  0.762E-02
  -5.013  0.732E-02  0.732E-02
  -4.998  0.702E-02  0.702E-02
  -4.983  0.674E-02  0.674E-02
  -4.968  0.646E-02  0.646E-02
  -4.953  0.620E-02  0.620E-02
  -4.938  0.596E-02  0.596E-02
  -4.923  0.573E-02  0.573E-02
  -4.908  0.553E-02  0.553E-02
  -4.893  0.534E-02  0.534E-02
  -4.878  0.518E-02  0.518E-02
  -4.863  0.503E-02  0.503E-02
  -4.848  0.491E-02  0.491E-02
  -4.833  0.481E-02  0.481E-02
  -4.818  0.472E-02  0.472E-02
  -4.803  0.466E-02  0.466E-02
  -4.788  0.461E-02  0.461E-02
  -4.773  0.458E-02  0.458E-02
  -4.758  0.456E-02  0.456E-02
  -4.743  0.456E-02  0.456E-02
  -4.728  0.456E-02  0.456E-02
  -4.713  0.458E-02  0.458E-02
  -4.698  0.460E-02  0.460E-02
  -4.683  0.463E-02  0.463E-02
  -4.668  0.467E-02  0.467E-02
  -4.653  0.471E-02  0.471E-02
  -4.638  0.475E-02  0.475E-02
  -4.623  0.479E-02  0.479E-02
  -4.608  0.483E-02  0.483E-02
  -4.593  0.487E-02  0.487E-02
  -4.578  0.490E-02  0.490E-02
  -4.563  0.494E-02  0.494E-02
  -4.548  0.497E-02  0.497E-02
  -4.533  0.499E-02  0.499E-02
  -4.518  0.501E-02  0.501E-02
  -4.503  0.502E-02  0.502E-02
  -4.488  0.503E-02  0.503E-02
  -4.473  0.504E-02  0.504E-02
  -4.458  0.503E-02  0.503E-02
  -4.443  0.502E-02  0.502E-02
  -4.428  0.501E-02  0.501E-02
  -4.413  0.498E-02  0.498E-02
  -4.398  0.495E-02  0.495E-02
  -4.383  0.492E-02  0.492E-02
  -4.368  0.487E-02  0.487E-02
  -4.353  0.482E-02  0.482E-02
  -4.338  0.476E-02  0.476E-02
  -4.323  0.470E-02  0.470E-02
  -4.308  0.463E-02  0.463E-02
  -4.293  0.455E-02  0.455E-02
  -4.278  0.446E-02  0.446E-02
  -4.263  0.437E-02  0.437E-02
  -4.248  0.427E-02  0.427E-02
  -4.233  0.416E-02  0.416E-02
  -4.218  0.405E-02  0.405E-02
  -4.203  0.393E-02  0.393E-02
  -4.188  0.380E-02  0.380E-02
  -4.173  0.367E-02  0.367E-02
  -4.158  0.353E-02  0.353E-02
  -4.143  0.338E-02  0.338E-02
  -4.128  0.323E-02  0.323E-02
  -4.113  0.308E-02  0.308E-02
  -4.098  0.292E-02  0.292E-02
  -4.083  0.277E-02  0.277E-02
  -4.068  0.261E-02  0.261E-02
  -4.053  0.245E-02  0.245E-02
  -4.038  0.229E-02  0.229E-02
  -4.023  0.213E-02  0.213E-02
  -4.008  0.197E-02  0.197E-02
  -3.993  0.182E-02  0.182E-02
  -3.978  0.167E-02  0.167E-02
  -3.963  0.153E-02  0.153E-02
  -3.948  0.139E-02  0.139E-02
  -3.933  0.126E-02  0.126E-02
  -3.918  0.114E-02  0.114E-02
  -3.903  0.102E-02  0.102E-02
  -3.888  0.909E-03  0.909E-03
  -3.873  0.807E-03  0.807E-03
  -3.858  0.713E-03  0.713E-03
  -3.843  0.627E-03  0.627E-03
  -3.828  0.548E-03  0.548E-03
  -3.813  0.476E-03  0.476E-03
  -3.798  0.412E-03  0.412E-03
  -3.783  0.354E-03  0.354E-03
  -3.768  0.303E-03  0.303E-03
  -3.753  0.258E-03  0.258E-03
  -3.738  0.218E-03  0.218E-03
  -3.723  0.183E-03  0.183E-03
  -3.708  0.153E-03  0.153E-03
  -3.693  0.128E-03  0.128E-03
  -3.678  0.106E-03  0.106E-03
  -3.663  0.868E-04  0.868E-04
  -3.648  0.710E-04  0.710E-04
  -3.633  0.577E-04  0.577E-04
  -3.618  0.467E-04  0.467E-04
  -3.603  0.375E-04  0.375E-04
  -3.588  0.300E-04  0.300E-04
  -3.573  0.238E-04  0.238E-04
  -3.558  0.188E-04  0.188E-04
  -3.543  0.148E-04  0.148E-04
  -3.528  0.116E-04  0.116E-04
  -3.513  0.897E-05  0.897E-05
  -3.498  0.693E-05  0.693E-05
  -3.483  0.531E-05  0.531E-05
  -3.468  0.406E-05  0.406E-05
  -3.453  0.308E-05  0.308E-05
  -3.438  0.232E-05  0.232E-05
  -3.423  0.174E-05  0.174E-05
  -3.408  0.130E-05  0.130E-05
  -3.393  0.960E-06  0.960E-06
  -3.378  0.707E-06  0.707E-06
  -3.363  0.518E-06  0.518E-06
  -3.348  0.377E-06  0.377E-06
  -3.333  0.273E-06  0.273E-06
  -3.318  0.196E-06  0.196E-06
  -3.303  0.140E-06  0.140E-06
  -3.288  0.996E-07  0.996E-07
  -3.273  0.704E-07  0.704E-07
  -3.258  0.495E-07  0.495E-07
  -3.243  0.345E-07  0.345E-07
  -3.228  0.240E-07  0.240E-07
  -3.213  0.165E-07  0.165E-07
  -3.198  0.113E-07  0.113E-07
  -3.183  0.773E-08  0.773E-08
  -3.168  0.524E-08  0.524E-08
  -3.153  0.353E-08  0.353E-08
  -3.138  0.237E-08  0.237E-08
  -3.123  0.157E-08  0.157E-08
  -3.108  0.104E-08  0.104E-08
  -3.093  0.686E-09  0.686E-09
  -3.078  0.448E-09  0.448E-09
  -3.063  0.292E-09  0.292E-09
  -3.048  0.188E-09  0.188E-09
  -3.033  0.121E-09  0.121E-09
  -3.018  0.773E-10  0.773E-10
  -3.003  0.490E-10  0.490E-10
  -2.988  0.309E-10  0.309E-10
  -2.973  0.194E-10  0.194E-10
  -2.958  0.121E-10  0.121E-10
  -2.943  0.749E-11  0.749E-11
  -2.928  0.462E-11  0.462E-11
  -2.913  0.283E-11  0.283E-11
  -2.898  0.172E-11  0.172E-11
  -2.883  0.104E-11  0.104E-11
  -2.868  0.626E-12  0.626E-12
  -2.853  0.373E-12  0.373E-12
  -2.838  0.221E-12  0.221E-12
  -2.823  0.129E-12  0.129E-12
  -2.808  0.732E-13  0.732E-13
  -2.793  0.417E-13  0.417E-13
  -2.778  0.223E-13  0.223E-13
  -2.763  0.120E-13  0.120E-13
  -2.748  0.454E-14  0.454E-14
  -2.733  0.000E+00  0.000E+00
  -2.718  0.000E+00  0.000E+00
  -2.703  0.000E+00  0.000E+00
  -2.688  0.000E+00  0.000E+00
  -2.673  0.000E+00  0.000E+00
  -2.658  0.000E+00  0.000E+00
  -2.643  0.000E+00  0.000E+00
  -2.628  0.000E+00  0.000E+00
  -2.613  0.000E+00  0.000E+00
  -2.598  0.000E+00  0.000E+00
  -2.583  0.000E+00  0.000E+00
  -2.568  0.000E+00  0.000E+00
  -2.553  0.000E+00  0.000E+00
  -2.538  0.000E+00  0.000E+00
  -2.523  0.000E+00  0.000E+00
  -2.508  0.000E+00  0.000E+00
  -2.493  0.000E+00  0.000E+00
  -2.478  0.000E+00  0.000E+00
  -2.463  0.000E+00  0.000E+00
  -2.448  0.000E+00  0.000E+00
  -2.433  0.000E+00  0.000E+00
  -2.418  0.000E+00  0.000E+00
  -2.403  0.000E+00  0.000E+00
  -2.388  0.000E+00  0.000E+00
  -2.373  0.000E+00  0.000E+00
  -2.358  0.000E+00  0.000E+00
  -2.343  0.000E+00  0.000E+00
  -2.328  0.000E+00  0.000E+00
  -2.313  0.000E+00  0.000E+00
  -2.298  0.000E+00  0.000E+00
  -2.283  0.000E+00  0.000E+00
  -2.268  0.000E+00  0.000E+00
  -2.253  0.000E+00  0.000E+00
  -2.238  0.000E+00  0.000E+00
  -2.223  0.000E+00  0.000E+00
  -2.208  0.000E+00  0.000E+00
  -2.193  0.000E+00  0.000E+00
  -2.178  0.000E+00  0.000E+00
  -2.163  0.000E+00  0.000E+00
  -2.148  0.000E+00  0.000E+00
  -2.133  0.000E+00  0.000E+00
  -2.118  0.000E+00  0.000E+00
  -2.103  0.000E+00  0.000E+00
  -2.088  0.000E+00  0.000E+00
  -2.073  0.000E+00  0.000E+00
  -2.058  0.000E+00  0.000E+00
  -2.043  0.000E+00  0.000E+00
  -2.028  0.000E+00  0.000E+00
  -2.013  0.000E+00  0.000E+00
  -1.998  0.000E+00  0.000E+00
  -1.983  0.000E+00  0.000E+00
  -1.968  0.000E+00  0.000E+00
  -1.953  0.000E+00  0.000E+00
  -1.938  0.000E+00  0.000E+00
  -1.923  0.000E+00  0.000E+00
  -1.908  0.000E+00  0.000E+00
  -1.893  0.000E+00  0.000E+00
  -1.878  0.000E+00  0.000E+00
  -1.863  0.000E+00  0.000E+00
  -1.848  0.000E+00  0.000E+00
  -1.833  0.000E+00  0.000E+00
  -1.818  0.000E+00  0.000E+00
  -1.803  0.000E+00  0.000E+00
  -1.788  0.000E+00  0.000E+00
  -1.773  0.000E+00  0.000E+00
  -1.758  0.000E+00  0.000E+00
  -1.743  0.000E+00  0.000E+00
  -1.728  0.000E+00  0.000E+00
  -1.713  0.000E+00  0.000E+00
  -1.698  0.000E+00  0.000E+00
  -1.683  0.000E+00  0.000E+00
  -1.668  0.000E+00  0.000E+00
  -1.653  0.000E+00  0.000E+00
  -1.638  0.000E+00  0.000E+00
  -1.623  0.000E+00  0.000E+00
  -1.608  0.000E+00  0.000E+00
  -1.593  0.000E+00  0.000E+00
  -1.578  0.000E+00  0.000E+00
  -1.563  0.000E+00  0.000E+00
  -1.548  0.000E+00  0.000E+00
  -1.533  0.000E+00  0.000E+00
  -1.518  0.000E+00  0.000E+00
  -1.503  0.000E+00  0.000E+00
  -1.488  0.000E+00  0.000E+00
  -1.473  0.000E+00  0.000E+00
  -1.458  0.000E+00  0.000E+00
  -1.443  0.000E+00  0.000E+00
  -1.428  0.000E+00  0.000E+00
  -1.413  0.000E+00  0.000E+00
  -1.398  0.000E+00  0.000E+00
  -1.383  0.000E+00  0.000E+00
  -1.368  0.000E+00  0.000E+00
  -1.353  0.000E+00  0.000E+00
  -1.338  0.000E+00  0.000E+00
  -1.323  0.000E+00  0.000E+00
  -1.308  0.000E+00  0.000E+00
  -1.293  0.000E+00  0.000E+00
  -1.278  0.000E+00  0.000E+00
  -1.263  0.000E+00  0.000E+00
  -1.248  0.000E+00  0.000E+00
  -1.233  0.000E+00  0.000E+00
  -1.218  0.000E+00  0.000E+00
  -1.203  0.000E+00  0.000E+00
  -1.188  0.000E+00  0.000E+00
  -1.173  0.000E+00  0.000E+00
  -1.158  0.000E+00  0.000E+00
  -1.143  0.000E+00  0.000E+00
  -1.128  0.000E+00  0.000E+00
  -1.113  0.000E+00  0.000E+00
  -1.098  0.000E+00  0.000E+00
  -1.083  0.000E+00  0.000E+00
  -1.068  0.000E+00  0.000E+00
  -1.053  0.000E+00  0.000E+00
  -1.038  0.000E+00  0.000E+00
  -1.023  0.000E+00  0.000E+00
  -1.008  0.000E+00  0.000E+00
  -0.993  0.000E+00  0.000E+00
  -0.978  0.000E+00  0.000E+00
  -0.963  0.000E+00  0.000E+00
  -0.948  0.000E+00  0.000E+00
  -0.933  0.000E+00  0.000E+00
  -0.918  0.459E-13  0.459E-13
  -0.903  0.107E-12  0.107E-12
  -0.888  0.211E-12  0.211E-12
  -0.873  0.392E-12  0.392E-12
  -0.858  0.670E-12  0.670E-12
  -0.843  0.116E-11  0.116E-11
  -0.828  0.197E-11  0.197E-11
  -0.813  0.332E-11  0.332E-11
  -0.798  0.556E-11  0.556E-11
  -0.783  0.924E-11  0.924E-11
  -0.768  0.153E-10  0.153E-10
  -0.753  0.250E-10  0.250E-10
  -0.738  0.409E-10  0.409E-10
  -0.723  0.663E-10  0.663E-10
  -0.708  0.107E-09  0.107E-09
  -0.693  0.171E-09  0.171E-09
  -0.678  0.273E-09  0.273E-09
  -0.663  0.431E-09  0.431E-09
  -0.648  0.679E-09  0.679E-09
  -0.633  0.106E-08  0.106E-08
  -0.618  0.165E-08  0.165E-08
  -0.603  0.255E-08  0.255E-08
  -0.588  0.392E-08  0.392E-08
  -0.573  0.598E-08  0.598E-08
  -0.558  0.908E-08  0.908E-08
  -0.543  0.137E-07  0.137E-07
  -0.528  0.205E-07  0.205E-07
  -0.513  0.306E-07  0.306E-07
  -0.498  0.453E-07  0.453E-07
  -0.483  0.668E-07  0.668E-07
  -0.468  0.978E-07  0.978E-07
  -0.453  0.142E-06  0.142E-06
  -0.438  0.206E-06  0.206E-06
  -0.423  0.296E-06  0.296E-06
  -0.408  0.423E-06  0.423E-06
  -0.393  0.601E-06  0.601E-06
  -0.378  0.849E-06  0.849E-06
  -0.363  0.119E-05  0.119E-05
  -0.348  0.166E-05  0.166E-05
  -0.333  0.231E-05  0.231E-05
  -0.318  0.318E-05  0.318E-05
  -0.303  0.436E-05  0.436E-05
  -0.288  0.594E-05  0.594E-05
  -0.273  0.805E-05  0.805E-05
  -0.258  0.108E-04  0.108E-04
  -0.243  0.145E-04  0.145E-04
  -0.228  0.193E-04  0.193E-04
  -0.213  0.255E-04  0.255E-04
  -0.198  0.336E-04  0.336E-04
  -0.183  0.439E-04  0.439E-04
  -0.168  0.570E-04  0.570E-04
  -0.153  0.736E-04  0.736E-04
  -0.138  0.945E-04  0.945E-04
  -0.123  0.121E-03  0.121E-03
  -0.108  0.153E-03  0.153E-03
  -0.093  0.193E-03  0.193E-03
  -0.078  0.242E-03  0.242E-03
  -0.063  0.302E-03  0.302E-03
  -0.048  0.374E-03  0.374E-03
  -0.033  0.461E-03  0.461E-03
  -0.018  0.565E-03  0.565E-03
  -0.003  0.688E-03  0.688E-03
   0.012  0.834E-03  0.834E-03
   0.027  0.100E-02  0.100E-02
   0.042  0.120E-02  0.120E-02
   0.057  0.143E-02  0.143E-02
   0.072  0.169E-02  0.169E-02
   0.087  0.199E-02  0.199E-02
   0.102  0.233E-02  0.233E-02
   0.117  0.271E-02  0.271E-02
   0.132  0.313E-02  0.313E-02
   0.147  0.360E-02  0.360E-02
   0.162  0.412E-02  0.412E-02
   0.177  0.468E-02  0.468E-02
   0.192  0.529E-02  0.529E-02
   0.207  0.595E-02  0.595E-02
   0.222  0.666E-02  0.666E-02
   0.237  0.741E-02  0.741E-02
   0.252  0.819E-02  0.819E-02
   0.267  0.901E-02  0.901E-02
   0.282  0.986E-02  0.986E-02
   0.297  0.107E-01  0.107E-01
   0.312  0.116E-01  0.116E-01
   0.327  0.125E-01  0.125E-01
   0.342  0.134E-01  0.134E-01
   0.357  0.143E-01  0.143E-01
   0.372  0.152E-01  0.152E-01
   0.387  0.160E-01  0.160E-01
   0.402  0.169E-01  0.169E-01
   0.417  0.177E-01  0.177E-01
   0.432  0.184E-01  0.184E-01
   0.447  0.191E-01  0.191E-01
   0.462  0.197E-01  0.197E-01
   0.477  0.202E-01  0.202E-01
   0.492  0.207E-01  0.207E-01
   0.507  0.212E-01  0.212E-01
   0.522  0.215E-01  0.215E-01
   0.537  0.218E-01  0.218E-01
   0.552  0.220E-01  0.220E-01
   0.567  0.222E-01  0.222E-01
   0.582  0.223E-01  0.223E-01
   0.597  0.223E-01  0.223E-01
   0.612  0.223E-01  0.223E-01
   0.627  0.223E-01  0.223E-01
   0.642  0.222E-01  0.222E-01
   0.657  0.220E-01  0.220E-01
   0.672  0.219E-01  0.219E-01
   0.687  0.217E-01  0.217E-01
   0.702  0.215E-01  0.215E-01
   0.717  0.213E-01  0.213E-01
   0.732  0.211E-01  0.211E-01
   0.747  0.209E-01  0.209E-01
   0.762  0.206E-01  0.206E-01
   0.777  0.204E-01  0.204E-01
   0.792  0.201E-01  0.201E-01
   0.807  0.199E-01  0.199E-01
   0.822  0.197E-01  0.197E-01
   0.837  0.194E-01  0.194E-01
   0.852  0.192E-01  0.192E-01
   0.867  0.189E-01  0.189E-01
   0.882  0.187E-01  0.187E-01
   0.897  0.184E-01  0.184E-01
   0.912  0.182E-01  0.182E-01
   0.927  0.179E-01  0.179E-01
   0.942  0.177E-01  0.177E-01
   0.957  0.174E-01  0.174E-01
   0.972  0.171E-01  0.171E-01
   0.987  0.169E-01  0.169E-01
   1.002  0.166E-01  0.166E-01
   1.017  0.163E-01  0.163E-01
   1.032  0.160E-01  0.160E-01
   1.047  0.158E-01  0.158E-01
   1.062  0.155E-01  0.155E-01
   1.077  0.152E-01  0.152E-01
   1.092  0.149E-01  0.149E-01
   1.107  0.147E-01  0.147E-01
   1.122  0.144E-01  0.144E-01
   1.137  0.142E-01  0.142E-01
   1.152  0.140E-01  0.140E-01
   1.167  0.137E-01  0.137E-01
   1.182  0.135E-01  0.135E-01
   1.197  0.134E-01  0.134E-01
   1.212  0.132E-01  0.132E-01
   1.227  0.130E-01  0.130E-01
   1.242  0.129E-01  0.129E-01
   1.257  0.128E-01  0.128E-01
   1.272  0.127E-01  0.127E-01
   1.287  0.127E-01  0.127E-01
   1.302  0.127E-01  0.127E-01
   1.317  0.127E-01  0.127E-01
   1.332  0.127E-01  0.127E-01
   1.347  0.128E-01  0.128E-01
   1.362  0.129E-01  0.129E-01
   1.377  0.131E-01  0.131E-01
   1.392  0.133E-01  0.133E-01
   1.407  0.135E-01  0.135E-01
   1.422  0.138E-01  0.138E-01
   1.437  0.141E-01  0.141E-01
   1.452  0.145E-01  0.145E-01
   1.467  0.149E-01  0.149E-01
   1.482  0.154E-01  0.154E-01
   1.497  0.159E-01  0.159E-01
   1.512  0.164E-01  0.164E-01
   1.527  0.170E-01  0.170E-01
   1.542  0.177E-01  0.177E-01
   1.557  0.183E-01  0.183E-01
   1.572  0.190E-01  0.190E-01
   1.587  0.198E-01  0.198E-01
   1.602  0.206E-01  0.206E-01
   1.617  0.214E-01  0.214E-01
   1.632  0.222E-01  0.222E-01
   1.647  0.230E-01  0.230E-01
   1.662  0.238E-01  0.238E-01
   1.677  0.246E-01  0.246E-01
   1.692  0.254E-01  0.254E-01
   1.707  0.261E-01  0.261E-01
   1.722  0.268E-01  0.268E-01
   1.737  0.275E-01  0.275E-01
   1.752  0.281E-01  0.281E-01
   1.767  0.287E-01  0.287E-01
   1.782  0.292E-01  0.292E-01
   1.797  0.296E-01  0.296E-01
   1.812  0.300E-01  0.300E-01
   1.827  0.303E-01  0.303E-01
   1.842  0.305E-01  0.305E-01
   1.857  0.306E-01  0.306E-01
   1.872  0.306E-01  0.306E-01
   1.887  0.306E-01  0.306E-01
   1.902  0.305E-01  0.305E-01
   1.917  0.303E-01  0.303E-01
   1.932  0.300E-01  0.300E-01
   1.947  0.297E-01  0.297E-01
   1.962  0.294E-01  0.294E-01
   1.977  0.290E-01  0.290E-01
   1.992  0.285E-01  0.285E-01
   2.007  0.281E-01  0.281E-01
   2.022  0.276E-01  0.276E-01
   2.037  0.271E-01  0.271E-01
   2.052  0.266E-01  0.266E-01
   2.067  0.261E-01  0.261E-01
   2.082  0.257E-01  0.257E-01
   2.097  0.252E-01  0.252E-01
   2.112  0.248E-01  0.248E-01
   2.127  0.244E-01  0.244E-01
   2.142  0.240E-01  0.240E-01
   2.157  0.237E-01  0.237E-01
   2.172  0.234E-01  0.234E-01
   2.187  0.232E-01  0.232E-01
   2.202  0.230E-01  0.230E-01
   2.217  0.228E-01  0.228E-01
   2.232  0.227E-01  0.227E-01
   2.247  0.227E-01  0.227E-01
   2.262  0.227E-01  0.227E-01
   2.277  0.228E-01  0.228E-01
   2.292  0.229E-01  0.229E-01
   2.307  0.230E-01  0.230E-01
   2.322  0.232E-01  0.232E-01
   2.337  0.235E-01  0.235E-01
   2.352  0.238E-01  0.238E-01
   2.367  0.241E-01  0.241E-01
   2.382  0.244E-01  0.244E-01
   2.397  0.248E-01  0.248E-01
   2.412  0.252E-01  0.252E-01
   2.427  0.257E-01  0.257E-01
   2.442  0.262E-01  0.262E-01
   2.457  0.267E-01  0.267E-01
   2.472  0.272E-01  0.272E-01
   2.487  0.278E-01  0.278E-01
   2.502  0.283E-01  0.283E-01
   2.517  0.289E-01  0.289E-01
   2.532  0.295E-01  0.295E-01
   2.547  0.301E-01  0.301E-01
   2.562  0.307E-01  0.307E-01
   2.577  0.313E-01  0.313E-01
   2.592  0.319E-01  0.319E-01
   2.607  0.324E-01  0.324E-01
   2.622  0.330E-01  0.330E-01
   2.637  0.336E-01  0.336E-01
   2.652  0.342E-01  0.342E-01
   2.667  0.347E-01  0.347E-01
   2.682  0.352E-01  0.352E-01
   2.697  0.357E-01  0.357E-01
   2.712  0.362E-01  0.362E-01
   2.727  0.367E-01  0.367E-01
   2.742  0.372E-01  0.372E-01
   2.757  0.376E-01  0.376E-01
   2.772  0.380E-01  0.380E-01
   2.787  0.384E-01  0.384E-01
   2.802  0.388E-01  0.388E-01
   2.817  0.392E-01  0.392E-01
   2.832  0.396E-01  0.396E-01
   2.847  0.400E-01  0.400E-01
   2.862  0.404E-01  0.404E-01
   2.877  0.408E-01  0.408E-01
   2.892  0.412E-01  0.412E-01
   2.907  0.416E-01  0.416E-01
   2.922  0.421E-01  0.421E-01
   2.937  0.426E-01  0.426E-01
   2.952  0.431E-01  0.431E-01
   2.967  0.436E-01  0.436E-01
   2.982  0.442E-01  0.442E-01
   2.997  0.448E-01  0.448E-01
   3.012  0.455E-01  0.455E-01
   3.027  0.462E-01  0.462E-01
   3.042  0.469E-01  0.469E-01
   3.057  0.476E-01  0.476E-01
   3.072  0.484E-01  0.484E-01
   3.087  0.492E-01  0.492E-01
   3.102  0.500E-01  0.500E-01
   3.117  0.509E-01  0.509E-01
   3.132  0.518E-01  0.518E-01
   3.147  0.527E-01  0.527E-01
   3.162  0.537E-01  0.537E-01
   3.177  0.547E-01  0.547E-01
   3.192  0.557E-01  0.557E-01
   3.207  0.567E-01  0.567E-01
   3.222  0.578E-01  0.578E-01
   3.237  0.589E-01  0.589E-01
   3.252  0.601E-01  0.601E-01
   3.267  0.612E-01  0.612E-01
   3.282  0.625E-01  0.625E-01
   3.297  0.637E-01  0.637E-01
   3.312  0.650E-01  0.650E-01
   3.327  0.664E-01  0.664E-01
   3.342  0.677E-01  0.677E-01
   3.357  0.692E-01  0.692E-01
   3.372  0.707E-01  0.707E-01
   3.387  0.722E-01  0.722E-01
   3.402  0.738E-01  0.738E-01
   3.417  0.754E-01  0.754E-01
   3.432  0.771E-01  0.771E-01
   3.447  0.788E-01  0.788E-01
   3.462  0.806E-01  0.806E-01
   3.477  0.825E-01  0.825E-01
   3.492  0.843E-01  0.843E-01
   3.507  0.863E-01  0.863E-01
   3.522  0.883E-01  0.883E-01
   3.537  0.903E-01  0.903E-01
   3.552  0.924E-01  0.924E-01
   3.567  0.946E-01  0.946E-01
   3.582  0.968E-01  0.968E-01
   3.597  0.991E-01  0.991E-01
   3.612  0.101E+00  0.101E+00
   3.627  0.104E+00  0.104E+00
   3.642  0.106E+00  0.106E+00
   3.657  0.109E+00  0.109E+00
   3.672  0.112E+00  0.112E+00
   3.687  0.114E+00  0.114E+00
   3.702  0.117E+00  0.117E+00
   3.717  0.120E+00  0.120E+00
   3.732  0.123E+00  0.123E+00
   3.747  0.126E+00  0.126E+00
   3.762  0.130E+00  0.130E+00
   3.777  0.133E+00  0.133E+00
   3.792  0.136E+00  0.136E+00
   3.807  0.140E+00  0.140E+00
   3.822  0.144E+00  0.144E+00
   3.837  0.147E+00  0.147E+00
   3.852  0.151E+00  0.151E+00
   3.867  0.155E+00  0.155E+00
   3.882  0.159E+00  0.159E+00
   3.897  0.163E+00  0.163E+00
   3.912  0.167E+00  0.167E+00
   3.927  0.171E+00  0.171E+00
   3.942  0.175E+00  0.175E+00
   3.957  0.180E+00  0.180E+00
   3.972  0.184E+00  0.184E+00
   3.987  0.188E+00  0.188E+00
   4.002  0.192E+00  0.192E+00
   4.017  0.197E+00  0.197E+00
   4.032  0.201E+00  0.201E+00
   4.047  0.205E+00  0.205E+00
   4.062  0.209E+00  0.209E+00
   4.077  0.213E+00  0.213E+00
   4.092  0.217E+00  0.217E+00
   4.107  0.221E+00  0.221E+00
   4.122  0.225E+00  0.225E+00
   4.137  0.228E+00  0.228E+00
   4.152  0.232E+00  0.232E+00
   4.167  0.235E+00  0.235E+00
   4.182  0.239E+00  0.239E+00
   4.197  0.242E+00  0.242E+00
   4.212  0.245E+00  0.245E+00
   4.227  0.248E+00  0.248E+00
   4.242  0.250E+00  0.250E+00
   4.257  0.253E+00  0.253E+00
   4.272  0.256E+00  0.256E+00
   4.287  0.258E+00  0.258E+00
   4.302  0.261E+00  0.261E+00
   4.317  0.264E+00  0.264E+00
   4.332  0.266E+00  0.266E+00
   4.347  0.269E+00  0.269E+00
   4.362  0.272E+00  0.272E+00
   4.377  0.275E+00  0.275E+00
   4.392  0.278E+00  0.278E+00
   4.407  0.281E+00  0.281E+00
   4.422  0.285E+00  0.285E+00
   4.437  0.288E+00  0.288E+00
   4.452  0.292E+00  0.292E+00
   4.467  0.296E+00  0.296E+00
   4.482  0.301E+00  0.301E+00
   4.497  0.305E+00  0.305E+00
   4.512  0.310E+00  0.310E+00
   4.527  0.314E+00  0.314E+00
   4.542  0.319E+00  0.319E+00
   4.557  0.324E+00  0.324E+00
   4.572  0.329E+00  0.329E+00
   4.587  0.334E+00  0.334E+00
   4.602  0.338E+00  0.338E+00
   4.617  0.343E+00  0.343E+00
   4.632  0.347E+00  0.347E+00
   4.647  0.351E+00  0.351E+00
   4.662  0.355E+00  0.355E+00
   4.677  0.359E+00  0.359E+00
   4.692  0.363E+00  0.363E+00
   4.707  0.366E+00  0.366E+00
   4.722  0.368E+00  0.368E+00
   4.737  0.371E+00  0.371E+00
   4.752  0.373E+00  0.373E+00
   4.767  0.374E+00  0.374E+00
   4.782  0.375E+00  0.375E+00
   4.797  0.376E+00  0.376E+00
   4.812  0.377E+00  0.377E+00
   4.827  0.377E+00  0.377E+00
   4.842  0.376E+00  0.376E+00
   4.857  0.376E+00  0.376E+00
   4.872  0.375E+00  0.375E+00
   4.887  0.374E+00  0.374E+00
   4.902  0.372E+00  0.372E+00
   4.917  0.370E+00  0.370E+00
   4.932  0.368E+00  0.368E+00
   4.947  0.366E+00  0.366E+00
   4.962  0.363E+00  0.363E+00
   4.977  0.360E+00  0.360E+00
   4.992  0.357E+00  0.357E+00
   5.007  0.353E+00  0.353E+00
   5.022  0.350E+00  0.350E+00
   5.037  0.346E+00  0.346E+00
   5.052  0.341E+00  0.341E+00
   5.067  0.337E+00  0.337E+00
   5.082  0.332E+00  0.332E+00
   5.097  0.328E+00  0.328E+00
   5.112  0.323E+00  0.323E+00
   5.127  0.317E+00  0.317E+00
   5.142  0.312E+00  0.312E+00
   5.157  0.306E+00  0.306E+00
   5.172  0.301E+00  0.301E+00
   5.187  0.295E+00  0.295E+00
   5.202  0.289E+00  0.289E+00
   5.217  0.283E+00  0.283E+00
   5.232  0.277E+00  0.277E+00
   5.247  0.271E+00  0.271E+00
   5.262  0.265E+00  0.265E+00
   5.277  0.259E+00  0.259E+00
   5.292  0.253E+00  0.253E+00
   5.307  0.247E+00  0.247E+00
   5.322  0.241E+00  0.241E+00
   5.337  0.235E+00  0.235E+00
   5.352  0.229E+00  0.229E+00
   5.367  0.224E+00  0.224E+00
   5.382  0.219E+00  0.219E+00
   5.397  0.214E+00  0.214E+00
   5.412  0.209E+00  0.209E+00
   5.427  0.204E+00  0.204E+00
   5.442  0.200E+00  0.200E+00
   5.457  0.196E+00  0.196E+00
   5.472  0.192E+00  0.192E+00
   5.487  0.189E+00  0.189E+00
   5.502  0.186E+00  0.186E+00
   5.517  0.182E+00  0.182E+00
   5.532  0.180E+00  0.180E+00
   5.547  0.177E+00  0.177E+00
   5.562  0.175E+00  0.175E+00
   5.577  0.173E+00  0.173E+00
   5.592  0.171E+00  0.171E+00
   5.607  0.169E+00  0.169E+00
   5.622  0.167E+00  0.167E+00
   5.637  0.166E+00  0.166E+00
   5.652  0.164E+00  0.164E+00
   5.667  0.163E+00  0.163E+00
   5.682  0.162E+00  0.162E+00
   5.697  0.161E+00  0.161E+00
   5.712  0.160E+00  0.160E+00
   5.727  0.159E+00  0.159E+00
   5.742  0.158E+00  0.158E+00
   5.757  0.157E+00  0.157E+00
   5.772  0.156E+00  0.156E+00
   5.787  0.156E+00  0.156E+00
   5.802  0.155E+00  0.155E+00
   5.817  0.154E+00  0.154E+00
   5.832  0.154E+00  0.154E+00
   5.847  0.154E+00  0.154E+00
   5.862  0.153E+00  0.153E+00
   5.877  0.153E+00  0.153E+00
   5.892  0.153E+00  0.153E+00
   5.907  0.153E+00  0.153E+00
   5.922  0.153E+00  0.153E+00
   5.937  0.153E+00  0.153E+00
   5.952  0.153E+00  0.153E+00
   5.967  0.153E+00  0.153E+00
   5.982  0.154E+00  0.154E+00
   5.997  0.154E+00  0.154E+00
   6.012  0.155E+00  0.155E+00
   6.027  0.155E+00  0.155E+00
   6.042  0.156E+00  0.156E+00
   6.057  0.157E+00  0.157E+00
   6.072  0.158E+00  0.158E+00
   6.087  0.158E+00  0.158E+00
   6.102  0.159E+00  0.159E+00
   6.117  0.160E+00  0.160E+00
   6.132  0.161E+00  0.161E+00
   6.147  0.162E+00  0.162E+00
   6.162  0.164E+00  0.164E+00
   6.177  0.165E+00  0.165E+00
   6.192  0.166E+00  0.166E+00
   6.207  0.167E+00  0.167E+00
   6.222  0.168E+00  0.168E+00
   6.237  0.169E+00  0.169E+00
   6.252  0.170E+00  0.170E+00
   6.267  0.172E+00  0.172E+00
   6.282  0.173E+00  0.173E+00
   6.297  0.174E+00  0.174E+00
   6.312  0.175E+00  0.175E+00
   6.327  0.176E+00  0.176E+00
   6.342  0.177E+00  0.177E+00
   6.357  0.179E+00  0.179E+00
   6.372  0.180E+00  0.180E+00
   6.387  0.181E+00  0.181E+00
   6.402  0.182E+00  0.182E+00
   6.417  0.183E+00  0.183E+00
   6.432  0.183E+00  0.183E+00
   6.447  0.184E+00  0.184E+00
   6.462  0.185E+00  0.185E+00
   6.477  0.186E+00  0.186E+00
   6.492  0.186E+00  0.186E+00
   6.507  0.186E+00  0.186E+00
   6.522  0.187E+00  0.187E+00
   6.537  0.187E+00  0.187E+00
   6.552  0.187E+00  0.187E+00
   6.567  0.187E+00  0.187E+00
   6.582  0.187E+00  0.187E+00
   6.597  0.187E+00  0.187E+00
   6.612  0.186E+00  0.186E+00
   6.627  0.186E+00  0.186E+00
   6.642  0.185E+00  0.185E+00
   6.657  0.184E+00  0.184E+00
   6.672  0.184E+00  0.184E+00
   6.687  0.183E+00  0.183E+00
   6.702  0.182E+00  0.182E+00
   6.717  0.181E+00  0.181E+00
   6.732  0.179E+00  0.179E+00
   6.747  0.178E+00  0.178E+00
   6.762  0.177E+00  0.177E+00
   6.777  0.176E+00  0.176E+00
   6.792  0.174E+00  0.174E+00
   6.807  0.173E+00  0.173E+00
   6.822  0.171E+00  0.171E+00
   6.837  0.170E+00  0.170E+00
   6.852  0.168E+00  0.168E+00
   6.867  0.166E+00  0.166E+00
   6.882  0.165E+00  0.165E+00
   6.897  0.163E+00  0.163E+00
   6.912  0.161E+00  0.161E+00
   6.927  0.159E+00  0.159E+00
   6.942  0.157E+00  0.157E+00
   6.957  0.156E+00  0.156E+00
   6.972  0.154E+00  0.154E+00
   6.987  0.152E+00  0.152E+00
   7.002  0.150E+00  0.150E+00
   7.017  0.148E+00  0.148E+00
   7.032  0.147E+00  0.147E+00
   7.047  0.145E+00  0.145E+00
   7.062  0.143E+00  0.143E+00
   7.077  0.141E+00  0.141E+00
   7.092  0.139E+00  0.139E+00
   7.107  0.137E+00  0.137E+00
   7.122  0.135E+00  0.135E+00
   7.137  0.133E+00  0.133E+00
   7.152  0.131E+00  0.131E+00
   7.167  0.129E+00  0.129E+00
   7.182  0.127E+00  0.127E+00
   7.197  0.125E+00  0.125E+00
   7.212  0.123E+00  0.123E+00
   7.227  0.120E+00  0.120E+00
   7.242  0.118E+00  0.118E+00
   7.257  0.116E+00  0.116E+00
   7.272  0.113E+00  0.113E+00
   7.287  0.111E+00  0.111E+00
   7.302  0.108E+00  0.108E+00
   7.317  0.106E+00  0.106E+00
   7.332  0.103E+00  0.103E+00
   7.347  0.101E+00  0.101E+00
   7.362  0.981E-01  0.981E-01
   7.377  0.955E-01  0.955E-01
   7.392  0.930E-01  0.930E-01
   7.407  0.904E-01  0.904E-01
   7.422  0.879E-01  0.879E-01
   7.437  0.855E-01  0.855E-01
   7.452  0.831E-01  0.831E-01
   7.467  0.807E-01  0.807E-01
   7.482  0.784E-01  0.784E-01
   7.497  0.762E-01  0.762E-01
   7.512  0.740E-01  0.740E-01
   7.527  0.719E-01  0.719E-01
   7.542  0.699E-01  0.699E-01
   7.557  0.679E-01  0.679E-01
   7.572  0.660E-01  0.660E-01
   7.587  0.641E-01  0.641E-01
   7.602  0.623E-01  0.623E-01
   7.617  0.606E-01  0.606E-01
   7.632  0.590E-01  0.590E-01
   7.647  0.573E-01  0.573E-01
   7.662  0.558E-01  0.558E-01
   7.677  0.543E-01  0.543E-01
   7.692  0.529E-01  0.529E-01
   7.707  0.515E-01  0.515E-01
   7.722  0.502E-01  0.502E-01
   7.737  0.489E-01  0.489E-01
   7.752  0.477E-01  0.477E-01
   7.767  0.465E-01  0.465E-01
   7.782  0.454E-01  0.454E-01
   7.797  0.444E-01  0.444E-01
   7.812  0.434E-01  0.434E-01
   7.827  0.425E-01  0.425E-01
   7.842  0.417E-01  0.417E-01
   7.857  0.410E-01  0.410E-01
   7.872  0.403E-01  0.403E-01
   7.887  0.396E-01  0.396E-01
   7.902  0.391E-01  0.391E-01
   7.917  0.386E-01  0.386E-01
   7.932  0.382E-01  0.382E-01
   7.947  0.379E-01  0.379E-01
   7.962  0.376E-01  0.376E-01
   7.977  0.374E-01  0.374E-01
   7.992  0.373E-01  0.373E-01
   8.007  0.373E-01  0.373E-01
   8.022  0.373E-01  0.373E-01
   8.037  0.374E-01  0.374E-01
   8.052  0.375E-01  0.375E-01
   8.067  0.377E-01  0.377E-01
   8.082  0.379E-01  0.379E-01
   8.097  0.382E-01  0.382E-01
   8.112  0.386E-01  0.386E-01
   8.127  0.390E-01  0.390E-01
   8.142  0.394E-01  0.394E-01
   8.157  0.399E-01  0.399E-01
   8.172  0.404E-01  0.404E-01
   8.187  0.409E-01  0.409E-01
   8.202  0.415E-01  0.415E-01
   8.217  0.420E-01  0.420E-01
   8.232  0.426E-01  0.426E-01
   8.247  0.432E-01  0.432E-01
   8.262  0.438E-01  0.438E-01
   8.277  0.444E-01  0.444E-01
   8.292  0.451E-01  0.451E-01
   8.307  0.457E-01  0.457E-01
   8.322  0.463E-01  0.463E-01
   8.337  0.469E-01  0.469E-01
   8.352  0.475E-01  0.475E-01
   8.367  0.481E-01  0.481E-01
   8.382  0.486E-01  0.486E-01
   8.397  0.492E-01  0.492E-01
   8.412  0.497E-01  0.497E-01
   8.427  0.502E-01  0.502E-01
   8.442  0.507E-01  0.507E-01
   8.457  0.512E-01  0.512E-01
   8.472  0.517E-01  0.517E-01
   8.487  0.522E-01  0.522E-01
   8.502  0.526E-01  0.526E-01
   8.517  0.530E-01  0.530E-01
   8.532  0.535E-01  0.535E-01
   8.547  0.539E-01  0.539E-01
   8.562  0.543E-01  0.543E-01
   8.577  0.547E-01  0.547E-01
   8.592  0.551E-01  0.551E-01
   8.607  0.555E-01  0.555E-01
   8.622  0.558E-01  0.558E-01
   8.637  0.562E-01  0.562E-01
   8.652  0.565E-01  0.565E-01
   8.667  0.569E-01  0.569E-01
   8.682  0.572E-01  0.572E-01
   8.697  0.575E-01  0.575E-01
   8.712  0.577E-01  0.577E-01
   8.727  0.579E-01  0.579E-01
   8.742  0.581E-01  0.581E-01
   8.757  0.582E-01  0.582E-01
   8.772  0.583E-01  0.583E-01
   8.787  0.583E-01  0.583E-01
   8.802  0.582E-01  0.582E-01
   8.817  0.580E-01  0.580E-01
   8.832  0.577E-01  0.577E-01
   8.847  0.574E-01  0.574E-01
   8.862  0.569E-01  0.569E-01
   8.877  0.564E-01  0.564E-01
   8.892  0.557E-01  0.557E-01
   8.907  0.549E-01  0.549E-01
   8.922  0.541E-01  0.541E-01
   8.937  0.531E-01  0.531E-01
   8.952  0.519E-01  0.519E-01
   8.967  0.507E-01  0.507E-01
   8.982  0.494E-01  0.494E-01
   8.997  0.480E-01  0.480E-01
   9.012  0.465E-01  0.465E-01
   9.027  0.449E-01  0.449E-01
   9.042  0.432E-01  0.432E-01
   9.057  0.415E-01  0.415E-01
   9.072  0.397E-01  0.397E-01
   9.087  0.379E-01  0.379E-01
   9.102  0.360E-01  0.360E-01
   9.117  0.341E-01  0.341E-01
   9.132  0.322E-01  0.322E-01
   9.147  0.303E-01  0.303E-01
   9.162  0.284E-01  0.284E-01
   9.177  0.266E-01  0.266E-01
   9.192  0.247E-01  0.247E-01
   9.207  0.230E-01  0.230E-01
   9.222  0.212E-01  0.212E-01
   9.237  0.195E-01  0.195E-01
   9.252  0.179E-01  0.179E-01
   9.267  0.164E-01  0.164E-01
   9.282  0.149E-01  0.149E-01
   9.297  0.135E-01  0.135E-01
   9.312  0.122E-01  0.122E-01
   9.327  0.109E-01  0.109E-01
   9.342  0.980E-02  0.980E-02
   9.357  0.873E-02  0.873E-02
   9.372  0.775E-02  0.775E-02
   9.387  0.685E-02  0.685E-02
   9.402  0.603E-02  0.603E-02
   9.417  0.528E-02  0.528E-02
   9.432  0.460E-02  0.460E-02
   9.447  0.399E-02  0.399E-02
   9.462  0.345E-02  0.345E-02
   9.477  0.297E-02  0.297E-02
   9.492  0.254E-02  0.254E-02
   9.507  0.217E-02  0.217E-02
   9.522  0.184E-02  0.184E-02
   9.537  0.155E-02  0.155E-02
   9.552  0.130E-02  0.130E-02
   9.567  0.109E-02  0.109E-02
   9.582  0.908E-03  0.908E-03
   9.597  0.752E-03  0.752E-03
   9.612  0.620E-03  0.620E-03
   9.627  0.509E-03  0.509E-03
   9.642  0.415E-03  0.415E-03
   9.657  0.338E-03  0.338E-03
   9.672  0.273E-03  0.273E-03
   9.687  0.220E-03  0.220E-03
   9.702  0.176E-03  0.176E-03
   9.717  0.140E-03  0.140E-03
   9.732  0.111E-03  0.111E-03
   9.747  0.878E-04  0.878E-04
   9.762  0.689E-04  0.689E-04
   9.777  0.539E-04  0.539E-04
   9.792  0.419E-04  0.419E-04
   9.807  0.324E-04  0.324E-04
   9.822  0.250E-04  0.250E-04
   9.837  0.192E-04  0.192E-04
   9.852  0.146E-04  0.146E-04
   9.867  0.111E-04  0.111E-04
   9.882  0.837E-05  0.837E-05
   9.897  0.629E-05  0.629E-05
   9.912  0.471E-05  0.471E-05
   9.927  0.350E-05  0.350E-05
   9.942  0.259E-05  0.259E-05
   9.957  0.191E-05  0.191E-05
   9.972  0.140E-05  0.140E-05
   9.987  0.102E-05  0.102E-05
  10.002  0.742E-06  0.742E-06
  10.017  0.536E-06  0.536E-06
  10.032  0.385E-06  0.385E-06
  10.047  0.276E-06  0.276E-06
  10.062  0.196E-06  0.196E-06
  10.077  0.139E-06  0.139E-06
  10.092  0.978E-07  0.978E-07
  10.107  0.686E-07  0.686E-07
  10.122  0.478E-07  0.478E-07
  10.137  0.332E-07  0.332E-07
