# E (eV)   ldos(E)   pdos(E)   
 -27.811  0.430E-06  0.430E-06
 -27.796  0.597E-06  0.597E-06
 -27.781  0.823E-06  0.823E-06
 -27.766  0.113E-05  0.113E-05
 -27.751  0.154E-05  0.154E-05
 -27.736  0.208E-05  0.208E-05
 -27.721  0.280E-05  0.280E-05
 -27.706  0.375E-05  0.375E-05
 -27.691  0.499E-05  0.499E-05
 -27.676  0.660E-05  0.660E-05
 -27.661  0.867E-05  0.867E-05
 -27.646  0.113E-04  0.113E-04
 -27.631  0.147E-04  0.147E-04
 -27.616  0.190E-04  0.190E-04
 -27.601  0.243E-04  0.243E-04
 -27.586  0.310E-04  0.310E-04
 -27.571  0.393E-04  0.393E-04
 -27.556  0.494E-04  0.494E-04
 -27.541  0.619E-04  0.619E-04
 -27.526  0.770E-04  0.770E-04
 -27.511  0.952E-04  0.952E-04
 -27.496  0.117E-03  0.117E-03
 -27.481  0.143E-03  0.143E-03
 -27.466  0.173E-03  0.173E-03
 -27.451  0.209E-03  0.209E-03
 -27.436  0.251E-03  0.251E-03
 -27.421  0.299E-03  0.299E-03
 -27.406  0.355E-03  0.355E-03
 -27.391  0.418E-03  0.418E-03
 -27.376  0.489E-03  0.489E-03
 -27.361  0.569E-03  0.569E-03
 -27.346  0.658E-03  0.658E-03
 -27.331  0.756E-03  0.756E-03
 -27.316  0.864E-03  0.864E-03
 -27.301  0.981E-03  0.981E-03
 -27.286  0.111E-02  0.111E-02
 -27.271  0.124E-02  0.124E-02
 -27.256  0.139E-02  0.139E-02
 -27.241  0.154E-02  0.154E-02
 -27.226  0.169E-02  0.169E-02
 -27.211  0.185E-02  0.185E-02
 -27.196  0.202E-02  0.202E-02
 -27.181  0.218E-02  0.218E-02
 -27.166  0.234E-02  0.234E-02
 -27.151  0.251E-02  0.251E-02
 -27.136  0.266E-02  0.266E-02
 -27.121  0.281E-02  0.281E-02
 -27.106  0.295E-02  0.295E-02
 -27.091  0.307E-02  0.307E-02
 -27.076  0.319E-02  0.319E-02
 -27.061  0.328E-02  0.328E-02
 -27.046  0.336E-02  0.336E-02
 -27.031  0.342E-02  0.342E-02
 -27.016  0.346E-02  0.346E-02
 -27.001  0.348E-02  0.348E-02
 -26.986  0.348E-02  0.348E-02
 -26.971  0.346E-02  0.346E-02
 -26.956  0.342E-02  0.342E-02
 -26.941  0.335E-02  0.335E-02
 -26.926  0.327E-02  0.327E-02
 -26.911  0.317E-02  0.317E-02
 -26.896  0.306E-02  0.306E-02
 -26.881  0.293E-02  0.293E-02
 -26.866  0.279E-02  0.279E-02
 -26.851  0.264E-02  0.264E-02
 -26.836  0.248E-02  0.248E-02
 -26.821  0.232E-02  0.232E-02
 -26.806  0.216E-02  0.216E-02
 -26.791  0.199E-02  0.199E-02
 -26.776  0.183E-02  0.183E-02
 -26.761  0.167E-02  0.167E-02
 -26.746  0.151E-02  0.151E-02
 -26.731  0.136E-02  0.136E-02
 -26.716  0.122E-02  0.122E-02
 -26.701  0.109E-02  0.109E-02
 -26.686  0.963E-03  0.963E-03
 -26.671  0.847E-03  0.847E-03
 -26.656  0.741E-03  0.741E-03
 -26.641  0.644E-03  0.644E-03
 -26.626  0.556E-03  0.556E-03
 -26.611  0.478E-03  0.478E-03
 -26.596  0.408E-03  0.408E-03
 -26.581  0.346E-03  0.346E-03
 -26.566  0.291E-03  0.291E-03
 -26.551  0.244E-03  0.244E-03
 -26.536  0.203E-03  0.203E-03
 -26.521  0.168E-03  0.168E-03
 -26.506  0.139E-03  0.139E-03
 -26.491  0.113E-03  0.113E-03
 -26.476  0.922E-04  0.922E-04
 -26.461  0.745E-04  0.745E-04
 -26.446  0.598E-04  0.598E-04
 -26.431  0.477E-04  0.477E-04
 -26.416  0.379E-04  0.379E-04
 -26.401  0.299E-04  0.299E-04
 -26.386  0.234E-04  0.234E-04
 -26.371  0.182E-04  0.182E-04
 -26.356  0.141E-04  0.141E-04
 -26.341  0.109E-04  0.109E-04
 -26.326  0.832E-05  0.832E-05
 -26.311  0.632E-05  0.632E-05
 -26.296  0.478E-05  0.478E-05
 -26.281  0.359E-05  0.359E-05
 -26.266  0.268E-05  0.268E-05
 -26.251  0.199E-05  0.199E-05
 -26.236  0.147E-05  0.147E-05
 -26.221  0.108E-05  0.108E-05
 -26.206  0.784E-06  0.784E-06
 -26.191  0.568E-06  0.568E-06
 -26.176  0.409E-06  0.409E-06
 -26.161  0.293E-06  0.293E-06
 -26.146  0.208E-06  0.208E-06
 -26.131  0.147E-06  0.147E-06
 -26.116  0.103E-06  0.103E-06
 -26.101  0.722E-07  0.722E-07
 -26.086  0.501E-07  0.501E-07
 -26.071  0.346E-07  0.346E-07
 -26.056  0.237E-07  0.237E-07
 -26.041  0.162E-07  0.162E-07
 -26.026  0.109E-07  0.109E-07
 -26.011  0.737E-08  0.737E-08
 -25.996  0.493E-08  0.493E-08
 -25.981  0.328E-08  0.328E-08
 -25.966  0.217E-08  0.217E-08
 -25.951  0.143E-08  0.143E-08
 -25.936  0.931E-09  0.931E-09
 -25.921  0.604E-09  0.604E-09
 -25.906  0.390E-09  0.390E-09
 -25.891  0.250E-09  0.250E-09
 -25.876  0.159E-09  0.159E-09
 -25.861  0.101E-09  0.101E-09
 -25.846  0.636E-10  0.636E-10
 -25.831  0.398E-10  0.398E-10
 -25.816  0.248E-10  0.248E-10
 -25.801  0.153E-10  0.153E-10
 -25.786  0.942E-11  0.942E-11
 -25.771  0.576E-11  0.576E-11
 -25.756  0.350E-11  0.350E-11
 -25.741  0.211E-11  0.211E-11
 -25.726  0.127E-11  0.127E-11
 -25.711  0.755E-12  0.755E-12
 -25.696  0.447E-12  0.447E-12
 -25.681  0.264E-12  0.264E-12
 -25.666  0.154E-12  0.154E-12
 -25.651  0.898E-13  0.898E-13
 -25.636  0.519E-13  0.519E-13
 -25.621  0.000E+00  0.000E+00
 -25.606  0.000E+00  0.000E+00
 -25.591  0.000E+00  0.000E+00
 -25.576  0.000E+00  0.000E+00
 -25.561  0.000E+00  0.000E+00
 -25.546  0.000E+00  0.000E+00
 -25.531  0.000E+00  0.000E+00
 -25.516  0.000E+00  0.000E+00
 -25.501  0.000E+00  0.000E+00
 -25.486  0.000E+00  0.000E+00
 -25.471  0.000E+00  0.000E+00
 -25.456  0.000E+00  0.000E+00
 -25.441  0.000E+00  0.000E+00
 -25.426  0.000E+00  0.000E+00
 -25.411  0.000E+00  0.000E+00
 -25.396  0.000E+00  0.000E+00
 -25.381  0.000E+00  0.000E+00
 -25.366  0.000E+00  0.000E+00
 -25.351  0.000E+00  0.000E+00
 -25.336  0.000E+00  0.000E+00
 -25.321  0.000E+00  0.000E+00
 -25.306  0.000E+00  0.000E+00
 -25.291  0.000E+00  0.000E+00
 -25.276  0.000E+00  0.000E+00
 -25.261  0.000E+00  0.000E+00
 -25.246  0.584E-13  0.584E-13
 -25.231  0.123E-12  0.123E-12
 -25.216  0.225E-12  0.225E-12
 -25.201  0.413E-12  0.413E-12
 -25.186  0.737E-12  0.737E-12
 -25.171  0.129E-11  0.129E-11
 -25.156  0.221E-11  0.221E-11
 -25.141  0.372E-11  0.372E-11
 -25.126  0.622E-11  0.622E-11
 -25.111  0.103E-10  0.103E-10
 -25.096  0.170E-10  0.170E-10
 -25.081  0.279E-10  0.279E-10
 -25.066  0.455E-10  0.455E-10
 -25.051  0.738E-10  0.738E-10
 -25.036  0.119E-09  0.119E-09
 -25.021  0.190E-09  0.190E-09
 -25.006  0.303E-09  0.303E-09
 -24.991  0.479E-09  0.479E-09
 -24.976  0.753E-09  0.753E-09
 -24.961  0.118E-08  0.118E-08
 -24.946  0.183E-08  0.183E-08
 -24.931  0.283E-08  0.283E-08
 -24.916  0.434E-08  0.434E-08
 -24.901  0.663E-08  0.663E-08
 -24.886  0.101E-07  0.101E-07
 -24.871  0.152E-07  0.152E-07
 -24.856  0.228E-07  0.228E-07
 -24.841  0.339E-07  0.339E-07
 -24.826  0.503E-07  0.503E-07
 -24.811  0.741E-07  0.741E-07
 -24.796  0.109E-06  0.109E-06
 -24.781  0.158E-06  0.158E-06
 -24.766  0.229E-06  0.229E-06
 -24.751  0.329E-06  0.329E-06
 -24.736  0.471E-06  0.471E-06
 -24.721  0.670E-06  0.670E-06
 -24.706  0.947E-06  0.947E-06
 -24.691  0.133E-05  0.133E-05
 -24.676  0.186E-05  0.186E-05
 -24.661  0.258E-05  0.258E-05
 -24.646  0.356E-05  0.356E-05
 -24.631  0.489E-05  0.489E-05
 -24.616  0.668E-05  0.668E-05
 -24.601  0.906E-05  0.906E-05
 -24.586  0.122E-04  0.122E-04
 -24.571  0.164E-04  0.164E-04
 -24.556  0.218E-04  0.218E-04
 -24.541  0.290E-04  0.290E-04
 -24.526  0.382E-04  0.382E-04
 -24.511  0.500E-04  0.500E-04
 -24.496  0.651E-04  0.651E-04
 -24.481  0.843E-04  0.843E-04
 -24.466  0.109E-03  0.109E-03
 -24.451  0.139E-03  0.139E-03
 -24.436  0.177E-03  0.177E-03
 -24.421  0.224E-03  0.224E-03
 -24.406  0.281E-03  0.281E-03
 -24.391  0.352E-03  0.352E-03
 -24.376  0.438E-03  0.438E-03
 -24.361  0.542E-03  0.542E-03
 -24.346  0.666E-03  0.666E-03
 -24.331  0.814E-03  0.814E-03
 -24.316  0.990E-03  0.990E-03
 -24.301  0.120E-02  0.120E-02
 -24.286  0.144E-02  0.144E-02
 -24.271  0.172E-02  0.172E-02
 -24.256  0.204E-02  0.204E-02
 -24.241  0.241E-02  0.241E-02
 -24.226  0.284E-02  0.284E-02
 -24.211  0.332E-02  0.332E-02
 -24.196  0.385E-02  0.385E-02
 -24.181  0.445E-02  0.445E-02
 -24.166  0.512E-02  0.512E-02
 -24.151  0.585E-02  0.585E-02
 -24.136  0.665E-02  0.665E-02
 -24.121  0.752E-02  0.752E-02
 -24.106  0.846E-02  0.846E-02
 -24.091  0.946E-02  0.946E-02
 -24.076  0.105E-01  0.105E-01
 -24.061  0.116E-01  0.116E-01
 -24.046  0.128E-01  0.128E-01
 -24.031  0.140E-01  0.140E-01
 -24.016  0.153E-01  0.153E-01
 -24.001  0.166E-01  0.166E-01
 -23.986  0.178E-01  0.178E-01
 -23.971  0.191E-01  0.191E-01
 -23.956  0.204E-01  0.204E-01
 -23.941  0.216E-01  0.216E-01
 -23.926  0.228E-01  0.228E-01
 -23.911  0.240E-01  0.240E-01
 -23.896  0.251E-01  0.251E-01
 -23.881  0.261E-01  0.261E-01
 -23.866  0.270E-01  0.270E-01
 -23.851  0.278E-01  0.278E-01
 -23.836  0.285E-01  0.285E-01
 -23.821  0.290E-01  0.290E-01
 -23.806  0.295E-01  0.295E-01
 -23.791  0.298E-01  0.298E-01
 -23.776  0.300E-01  0.300E-01
 -23.761  0.300E-01  0.300E-01
 -23.746  0.300E-01  0.300E-01
 -23.731  0.298E-01  0.298E-01
 -23.716  0.295E-01  0.295E-01
 -23.701  0.290E-01  0.290E-01
 -23.686  0.285E-01  0.285E-01
 -23.671  0.280E-01  0.280E-01
 -23.656  0.273E-01  0.273E-01
 -23.641  0.266E-01  0.266E-01
 -23.626  0.259E-01  0.259E-01
 -23.611  0.252E-01  0.252E-01
 -23.596  0.244E-01  0.244E-01
 -23.581  0.237E-01  0.237E-01
 -23.566  0.230E-01  0.230E-01
 -23.551  0.224E-01  0.224E-01
 -23.536  0.219E-01  0.219E-01
 -23.521  0.215E-01  0.215E-01
 -23.506  0.211E-01  0.211E-01
 -23.491  0.209E-01  0.209E-01
 -23.476  0.209E-01  0.209E-01
 -23.461  0.210E-01  0.210E-01
 -23.446  0.213E-01  0.213E-01
 -23.431  0.218E-01  0.218E-01
 -23.416  0.225E-01  0.225E-01
 -23.401  0.234E-01  0.234E-01
 -23.386  0.245E-01  0.245E-01
 -23.371  0.259E-01  0.259E-01
 -23.356  0.276E-01  0.276E-01
 -23.341  0.295E-01  0.295E-01
 -23.326  0.318E-01  0.318E-01
 -23.311  0.343E-01  0.343E-01
 -23.296  0.371E-01  0.371E-01
 -23.281  0.402E-01  0.402E-01
 -23.266  0.436E-01  0.436E-01
 -23.251  0.474E-01  0.474E-01
 -23.236  0.514E-01  0.514E-01
 -23.221  0.558E-01  0.558E-01
 -23.206  0.604E-01  0.604E-01
 -23.191  0.653E-01  0.653E-01
 -23.176  0.704E-01  0.704E-01
 -23.161  0.758E-01  0.758E-01
 -23.146  0.814E-01  0.814E-01
 -23.131  0.872E-01  0.872E-01
 -23.116  0.932E-01  0.932E-01
 -23.101  0.992E-01  0.992E-01
 -23.086  0.105E+00  0.105E+00
 -23.071  0.112E+00  0.112E+00
 -23.056  0.118E+00  0.118E+00
 -23.041  0.124E+00  0.124E+00
 -23.026  0.130E+00  0.130E+00
 -23.011  0.136E+00  0.136E+00
 -22.996  0.142E+00  0.142E+00
 -22.981  0.147E+00  0.147E+00
 -22.966  0.153E+00  0.153E+00
 -22.951  0.158E+00  0.158E+00
 -22.936  0.163E+00  0.163E+00
 -22.921  0.167E+00  0.167E+00
 -22.906  0.172E+00  0.172E+00
 -22.891  0.176E+00  0.176E+00
 -22.876  0.180E+00  0.180E+00
 -22.861  0.183E+00  0.183E+00
 -22.846  0.187E+00  0.187E+00
 -22.831  0.190E+00  0.190E+00
 -22.816  0.193E+00  0.193E+00
 -22.801  0.195E+00  0.195E+00
 -22.786  0.198E+00  0.198E+00
 -22.771  0.201E+00  0.201E+00
 -22.756  0.203E+00  0.203E+00
 -22.741  0.205E+00  0.205E+00
 -22.726  0.208E+00  0.208E+00
 -22.711  0.210E+00  0.210E+00
 -22.696  0.213E+00  0.213E+00
 -22.681  0.215E+00  0.215E+00
 -22.666  0.218E+00  0.218E+00
 -22.651  0.220E+00  0.220E+00
 -22.636  0.223E+00  0.223E+00
 -22.621  0.225E+00  0.225E+00
 -22.606  0.227E+00  0.227E+00
 -22.591  0.230E+00  0.230E+00
 -22.576  0.232E+00  0.232E+00
 -22.561  0.233E+00  0.233E+00
 -22.546  0.235E+00  0.235E+00
 -22.531  0.236E+00  0.236E+00
 -22.516  0.237E+00  0.237E+00
 -22.501  0.238E+00  0.238E+00
 -22.486  0.238E+00  0.238E+00
 -22.471  0.237E+00  0.237E+00
 -22.456  0.237E+00  0.237E+00
 -22.441  0.235E+00  0.235E+00
 -22.426  0.233E+00  0.233E+00
 -22.411  0.230E+00  0.230E+00
 -22.396  0.227E+00  0.227E+00
 -22.381  0.223E+00  0.223E+00
 -22.366  0.219E+00  0.219E+00
 -22.351  0.214E+00  0.214E+00
 -22.336  0.209E+00  0.209E+00
 -22.321  0.203E+00  0.203E+00
 -22.306  0.197E+00  0.197E+00
 -22.291  0.191E+00  0.191E+00
 -22.276  0.184E+00  0.184E+00
 -22.261  0.177E+00  0.177E+00
 -22.246  0.170E+00  0.170E+00
 -22.231  0.163E+00  0.163E+00
 -22.216  0.156E+00  0.156E+00
 -22.201  0.149E+00  0.149E+00
 -22.186  0.142E+00  0.142E+00
 -22.171  0.135E+00  0.135E+00
 -22.156  0.128E+00  0.128E+00
 -22.141  0.122E+00  0.122E+00
 -22.126  0.115E+00  0.115E+00
 -22.111  0.109E+00  0.109E+00
 -22.096  0.103E+00  0.103E+00
 -22.081  0.978E-01  0.978E-01
 -22.066  0.925E-01  0.925E-01
 -22.051  0.876E-01  0.876E-01
 -22.036  0.829E-01  0.829E-01
 -22.021  0.786E-01  0.786E-01
 -22.006  0.745E-01  0.745E-01
 -21.991  0.707E-01  0.707E-01
 -21.976  0.673E-01  0.673E-01
 -21.961  0.641E-01  0.641E-01
 -21.946  0.611E-01  0.611E-01
 -21.931  0.584E-01  0.584E-01
 -21.916  0.560E-01  0.560E-01
 -21.901  0.538E-01  0.538E-01
 -21.886  0.519E-01  0.519E-01
 -21.871  0.502E-01  0.502E-01
 -21.856  0.486E-01  0.486E-01
 -21.841  0.473E-01  0.473E-01
 -21.826  0.462E-01  0.462E-01
 -21.811  0.452E-01  0.452E-01
 -21.796  0.444E-01  0.444E-01
 -21.781  0.437E-01  0.437E-01
 -21.766  0.432E-01  0.432E-01
 -21.751  0.427E-01  0.427E-01
 -21.736  0.424E-01  0.424E-01
 -21.721  0.421E-01  0.421E-01
 -21.706  0.419E-01  0.419E-01
 -21.691  0.417E-01  0.417E-01
 -21.676  0.415E-01  0.415E-01
 -21.661  0.414E-01  0.414E-01
 -21.646  0.412E-01  0.412E-01
 -21.631  0.410E-01  0.410E-01
 -21.616  0.407E-01  0.407E-01
 -21.601  0.404E-01  0.404E-01
 -21.586  0.400E-01  0.400E-01
 -21.571  0.395E-01  0.395E-01
 -21.556  0.389E-01  0.389E-01
 -21.541  0.383E-01  0.383E-01
 -21.526  0.375E-01  0.375E-01
 -21.511  0.366E-01  0.366E-01
 -21.496  0.357E-01  0.357E-01
 -21.481  0.346E-01  0.346E-01
 -21.466  0.335E-01  0.335E-01
 -21.451  0.323E-01  0.323E-01
 -21.436  0.310E-01  0.310E-01
 -21.421  0.296E-01  0.296E-01
 -21.406  0.282E-01  0.282E-01
 -21.391  0.268E-01  0.268E-01
 -21.376  0.253E-01  0.253E-01
 -21.361  0.238E-01  0.238E-01
 -21.346  0.223E-01  0.223E-01
 -21.331  0.208E-01  0.208E-01
 -21.316  0.193E-01  0.193E-01
 -21.301  0.179E-01  0.179E-01
 -21.286  0.165E-01  0.165E-01
 -21.271  0.151E-01  0.151E-01
 -21.256  0.138E-01  0.138E-01
 -21.241  0.126E-01  0.126E-01
 -21.226  0.114E-01  0.114E-01
 -21.211  0.103E-01  0.103E-01
 -21.196  0.921E-02  0.921E-02
 -21.181  0.824E-02  0.824E-02
 -21.166  0.733E-02  0.733E-02
 -21.151  0.650E-02  0.650E-02
 -21.136  0.573E-02  0.573E-02
 -21.121  0.503E-02  0.503E-02
 -21.106  0.440E-02  0.440E-02
 -21.091  0.383E-02  0.383E-02
 -21.076  0.332E-02  0.332E-02
 -21.061  0.287E-02  0.287E-02
 -21.046  0.246E-02  0.246E-02
 -21.031  0.211E-02  0.211E-02
 -21.016  0.179E-02  0.179E-02
 -21.001  0.152E-02  0.152E-02
 -20.986  0.128E-02  0.128E-02
 -20.971  0.108E-02  0.108E-02
 -20.956  0.901E-03  0.901E-03
 -20.941  0.750E-03  0.750E-03
 -20.926  0.621E-03  0.621E-03
 -20.911  0.512E-03  0.512E-03
 -20.896  0.420E-03  0.420E-03
 -20.881  0.343E-03  0.343E-03
 -20.866  0.279E-03  0.279E-03
 -20.851  0.225E-03  0.225E-03
 -20.836  0.181E-03  0.181E-03
 -20.821  0.145E-03  0.145E-03
 -20.806  0.116E-03  0.116E-03
 -20.791  0.919E-04  0.919E-04
 -20.776  0.725E-04  0.725E-04
 -20.761  0.570E-04  0.570E-04
 -20.746  0.445E-04  0.445E-04
 -20.731  0.346E-04  0.346E-04
 -20.716  0.268E-04  0.268E-04
 -20.701  0.206E-04  0.206E-04
 -20.686  0.158E-04  0.158E-04
 -20.671  0.120E-04  0.120E-04
 -20.656  0.910E-05  0.910E-05
 -20.641  0.686E-05  0.686E-05
 -20.626  0.515E-05  0.515E-05
 -20.611  0.384E-05  0.384E-05
 -20.596  0.285E-05  0.285E-05
 -20.581  0.210E-05  0.210E-05
 -20.566  0.154E-05  0.154E-05
 -20.551  0.113E-05  0.113E-05
 -20.536  0.820E-06  0.820E-06
 -20.521  0.592E-06  0.592E-06
 -20.506  0.426E-06  0.426E-06
 -20.491  0.304E-06  0.304E-06
 -20.476  0.216E-06  0.216E-06
 -20.461  0.153E-06  0.153E-06
 -20.446  0.108E-06  0.108E-06
 -20.431  0.753E-07  0.753E-07
 -20.416  0.524E-07  0.524E-07
 -20.401  0.362E-07  0.362E-07
 -20.386  0.249E-07  0.249E-07
 -20.371  0.171E-07  0.171E-07
 -20.356  0.116E-07  0.116E-07
 -20.341  0.786E-08  0.786E-08
 -20.326  0.529E-08  0.529E-08
 -20.311  0.354E-08  0.354E-08
 -20.296  0.236E-08  0.236E-08
 -20.281  0.156E-08  0.156E-08
 -20.266  0.103E-08  0.103E-08
 -20.251  0.673E-09  0.673E-09
 -20.236  0.438E-09  0.438E-09
 -20.221  0.283E-09  0.283E-09
 -20.206  0.182E-09  0.182E-09
 -20.191  0.117E-09  0.117E-09
 -20.176  0.743E-10  0.743E-10
 -20.161  0.470E-10  0.470E-10
 -20.146  0.296E-10  0.296E-10
 -20.131  0.185E-10  0.185E-10
 -20.116  0.115E-10  0.115E-10
 -20.101  0.710E-11  0.710E-11
 -20.086  0.437E-11  0.437E-11
 -20.071  0.266E-11  0.266E-11
 -20.056  0.162E-11  0.162E-11
 -20.041  0.979E-12  0.979E-12
 -20.026  0.590E-12  0.590E-12
 -20.011  0.353E-12  0.353E-12
 -19.996  0.210E-12  0.210E-12
 -19.981  0.124E-12  0.124E-12
 -19.966  0.494E-13  0.494E-13
 -19.951  0.293E-13  0.293E-13
 -19.936  0.172E-13  0.172E-13
 -19.921  0.101E-13  0.101E-13
 -19.906  0.567E-14  0.567E-14
 -19.891  0.302E-14  0.302E-14
 -19.876  0.112E-14  0.112E-14
 -19.861  0.000E+00  0.000E+00
 -19.846  0.000E+00  0.000E+00
 -19.831  0.000E+00  0.000E+00
 -19.816  0.000E+00  0.000E+00
 -19.801  0.000E+00  0.000E+00
 -19.786  0.000E+00  0.000E+00
 -19.771  0.000E+00  0.000E+00
 -19.756  0.000E+00  0.000E+00
 -19.741  0.000E+00  0.000E+00
 -19.726  0.000E+00  0.000E+00
 -19.711  0.000E+00  0.000E+00
 -19.696  0.000E+00  0.000E+00
 -19.681  0.000E+00  0.000E+00
 -19.666  0.000E+00  0.000E+00
 -19.651  0.000E+00  0.000E+00
 -19.636  0.000E+00  0.000E+00
 -19.621  0.000E+00  0.000E+00
 -19.606  0.000E+00  0.000E+00
 -19.591  0.000E+00  0.000E+00
 -19.576  0.000E+00  0.000E+00
 -19.561  0.000E+00  0.000E+00
 -19.546  0.000E+00  0.000E+00
 -19.531  0.000E+00  0.000E+00
 -19.516  0.000E+00  0.000E+00
 -19.501  0.000E+00  0.000E+00
 -19.486  0.000E+00  0.000E+00
 -19.471  0.000E+00  0.000E+00
 -19.456  0.000E+00  0.000E+00
 -19.441  0.000E+00  0.000E+00
 -19.426  0.000E+00  0.000E+00
 -19.411  0.000E+00  0.000E+00
 -19.396  0.000E+00  0.000E+00
 -19.381  0.000E+00  0.000E+00
 -19.366  0.000E+00  0.000E+00
 -19.351  0.000E+00  0.000E+00
 -19.336  0.000E+00  0.000E+00
 -19.321  0.000E+00  0.000E+00
 -19.306  0.000E+00  0.000E+00
 -19.291  0.000E+00  0.000E+00
 -19.276  0.000E+00  0.000E+00
 -19.261  0.000E+00  0.000E+00
 -19.246  0.000E+00  0.000E+00
 -19.231  0.000E+00  0.000E+00
 -19.216  0.000E+00  0.000E+00
 -19.201  0.000E+00  0.000E+00
 -19.186  0.000E+00  0.000E+00
 -19.171  0.000E+00  0.000E+00
 -19.156  0.000E+00  0.000E+00
 -19.141  0.000E+00  0.000E+00
 -19.126  0.000E+00  0.000E+00
 -19.111  0.000E+00  0.000E+00
 -19.096  0.000E+00  0.000E+00
 -19.081  0.000E+00  0.000E+00
 -19.066  0.000E+00  0.000E+00
 -19.051  0.000E+00  0.000E+00
 -19.036  0.000E+00  0.000E+00
 -19.021  0.000E+00  0.000E+00
 -19.006  0.000E+00  0.000E+00
 -18.991  0.000E+00  0.000E+00
 -18.976  0.000E+00  0.000E+00
 -18.961  0.000E+00  0.000E+00
 -18.946  0.000E+00  0.000E+00
 -18.931  0.000E+00  0.000E+00
 -18.916  0.000E+00  0.000E+00
 -18.901  0.000E+00  0.000E+00
 -18.886  0.000E+00  0.000E+00
 -18.871  0.000E+00  0.000E+00
 -18.856  0.000E+00  0.000E+00
 -18.841  0.000E+00  0.000E+00
 -18.826  0.000E+00  0.000E+00
 -18.811  0.000E+00  0.000E+00
 -18.796  0.000E+00  0.000E+00
 -18.781  0.000E+00  0.000E+00
 -18.766  0.000E+00  0.000E+00
 -18.751  0.000E+00  0.000E+00
 -18.736  0.000E+00  0.000E+00
 -18.721  0.000E+00  0.000E+00
 -18.706  0.000E+00  0.000E+00
 -18.691  0.000E+00  0.000E+00
 -18.676  0.000E+00  0.000E+00
 -18.661  0.000E+00  0.000E+00
 -18.646  0.000E+00  0.000E+00
 -18.631  0.000E+00  0.000E+00
 -18.616  0.000E+00  0.000E+00
 -18.601  0.000E+00  0.000E+00
 -18.586  0.000E+00  0.000E+00
 -18.571  0.000E+00  0.000E+00
 -18.556  0.000E+00  0.000E+00
 -18.541  0.000E+00  0.000E+00
 -18.526  0.000E+00  0.000E+00
 -18.511  0.000E+00  0.000E+00
 -18.496  0.000E+00  0.000E+00
 -18.481  0.000E+00  0.000E+00
 -18.466  0.000E+00  0.000E+00
 -18.451  0.000E+00  0.000E+00
 -18.436  0.000E+00  0.000E+00
 -18.421  0.000E+00  0.000E+00
 -18.406  0.000E+00  0.000E+00
 -18.391  0.000E+00  0.000E+00
 -18.376  0.000E+00  0.000E+00
 -18.361  0.000E+00  0.000E+00
 -18.346  0.000E+00  0.000E+00
 -18.331  0.000E+00  0.000E+00
 -18.316  0.000E+00  0.000E+00
 -18.301  0.000E+00  0.000E+00
 -18.286  0.000E+00  0.000E+00
 -18.271  0.000E+00  0.000E+00
 -18.256  0.000E+00  0.000E+00
 -18.241  0.000E+00  0.000E+00
 -18.226  0.000E+00  0.000E+00
 -18.211  0.000E+00  0.000E+00
 -18.196  0.000E+00  0.000E+00
 -18.181  0.000E+00  0.000E+00
 -18.166  0.000E+00  0.000E+00
 -18.151  0.000E+00  0.000E+00
 -18.136  0.000E+00  0.000E+00
 -18.121  0.000E+00  0.000E+00
 -18.106  0.000E+00  0.000E+00
 -18.091  0.000E+00  0.000E+00
 -18.076  0.000E+00  0.000E+00
 -18.061  0.000E+00  0.000E+00
 -18.046  0.000E+00  0.000E+00
 -18.031  0.000E+00  0.000E+00
 -18.016  0.000E+00  0.000E+00
 -18.001  0.000E+00  0.000E+00
 -17.986  0.000E+00  0.000E+00
 -17.971  0.000E+00  0.000E+00
 -17.956  0.000E+00  0.000E+00
 -17.941  0.000E+00  0.000E+00
 -17.926  0.000E+00  0.000E+00
 -17.911  0.000E+00  0.000E+00
 -17.896  0.000E+00  0.000E+00
 -17.881  0.000E+00  0.000E+00
 -17.866  0.000E+00  0.000E+00
 -17.851  0.000E+00  0.000E+00
 -17.836  0.000E+00  0.000E+00
 -17.821  0.000E+00  0.000E+00
 -17.806  0.000E+00  0.000E+00
 -17.791  0.000E+00  0.000E+00
 -17.776  0.000E+00  0.000E+00
 -17.761  0.000E+00  0.000E+00
 -17.746  0.000E+00  0.000E+00
 -17.731  0.000E+00  0.000E+00
 -17.716  0.000E+00  0.000E+00
 -17.701  0.000E+00  0.000E+00
 -17.686  0.000E+00  0.000E+00
 -17.671  0.000E+00  0.000E+00
 -17.656  0.000E+00  0.000E+00
 -17.641  0.000E+00  0.000E+00
 -17.626  0.000E+00  0.000E+00
 -17.611  0.000E+00  0.000E+00
 -17.596  0.000E+00  0.000E+00
 -17.581  0.000E+00  0.000E+00
 -17.566  0.000E+00  0.000E+00
 -17.551  0.000E+00  0.000E+00
 -17.536  0.000E+00  0.000E+00
 -17.521  0.000E+00  0.000E+00
 -17.506  0.000E+00  0.000E+00
 -17.491  0.000E+00  0.000E+00
 -17.476  0.000E+00  0.000E+00
 -17.461  0.000E+00  0.000E+00
 -17.446  0.000E+00  0.000E+00
 -17.431  0.000E+00  0.000E+00
 -17.416  0.000E+00  0.000E+00
 -17.401  0.000E+00  0.000E+00
 -17.386  0.000E+00  0.000E+00
 -17.371  0.000E+00  0.000E+00
 -17.356  0.000E+00  0.000E+00
 -17.341  0.000E+00  0.000E+00
 -17.326  0.000E+00  0.000E+00
 -17.311  0.000E+00  0.000E+00
 -17.296  0.000E+00  0.000E+00
 -17.281  0.000E+00  0.000E+00
 -17.266  0.000E+00  0.000E+00
 -17.251  0.000E+00  0.000E+00
 -17.236  0.000E+00  0.000E+00
 -17.221  0.000E+00  0.000E+00
 -17.206  0.000E+00  0.000E+00
 -17.191  0.000E+00  0.000E+00
 -17.176  0.000E+00  0.000E+00
 -17.161  0.000E+00  0.000E+00
 -17.146  0.000E+00  0.000E+00
 -17.131  0.000E+00  0.000E+00
 -17.116  0.000E+00  0.000E+00
 -17.101  0.000E+00  0.000E+00
 -17.086  0.000E+00  0.000E+00
 -17.071  0.000E+00  0.000E+00
 -17.056  0.000E+00  0.000E+00
 -17.041  0.000E+00  0.000E+00
 -17.026  0.000E+00  0.000E+00
 -17.011  0.000E+00  0.000E+00
 -16.996  0.000E+00  0.000E+00
 -16.981  0.000E+00  0.000E+00
 -16.966  0.000E+00  0.000E+00
 -16.951  0.000E+00  0.000E+00
 -16.936  0.000E+00  0.000E+00
 -16.921  0.000E+00  0.000E+00
 -16.906  0.000E+00  0.000E+00
 -16.891  0.000E+00  0.000E+00
 -16.876  0.000E+00  0.000E+00
 -16.861  0.000E+00  0.000E+00
 -16.846  0.000E+00  0.000E+00
 -16.831  0.000E+00  0.000E+00
 -16.816  0.000E+00  0.000E+00
 -16.801  0.000E+00  0.000E+00
 -16.786  0.000E+00  0.000E+00
 -16.771  0.000E+00  0.000E+00
 -16.756  0.000E+00  0.000E+00
 -16.741  0.000E+00  0.000E+00
 -16.726  0.000E+00  0.000E+00
 -16.711  0.000E+00  0.000E+00
 -16.696  0.000E+00  0.000E+00
 -16.681  0.000E+00  0.000E+00
 -16.666  0.000E+00  0.000E+00
 -16.651  0.000E+00  0.000E+00
 -16.636  0.000E+00  0.000E+00
 -16.621  0.000E+00  0.000E+00
 -16.606  0.000E+00  0.000E+00
 -16.591  0.000E+00  0.000E+00
 -16.576  0.000E+00  0.000E+00
 -16.561  0.000E+00  0.000E+00
 -16.546  0.000E+00  0.000E+00
 -16.531  0.000E+00  0.000E+00
 -16.516  0.000E+00  0.000E+00
 -16.501  0.000E+00  0.000E+00
 -16.486  0.000E+00  0.000E+00
 -16.471  0.000E+00  0.000E+00
 -16.456  0.000E+00  0.000E+00
 -16.441  0.000E+00  0.000E+00
 -16.426  0.000E+00  0.000E+00
 -16.411  0.000E+00  0.000E+00
 -16.396  0.000E+00  0.000E+00
 -16.381  0.000E+00  0.000E+00
 -16.366  0.000E+00  0.000E+00
 -16.351  0.000E+00  0.000E+00
 -16.336  0.000E+00  0.000E+00
 -16.321  0.000E+00  0.000E+00
 -16.306  0.000E+00  0.000E+00
 -16.291  0.000E+00  0.000E+00
 -16.276  0.000E+00  0.000E+00
 -16.261  0.000E+00  0.000E+00
 -16.246  0.000E+00  0.000E+00
 -16.231  0.000E+00  0.000E+00
 -16.216  0.000E+00  0.000E+00
 -16.201  0.000E+00  0.000E+00
 -16.186  0.000E+00  0.000E+00
 -16.171  0.000E+00  0.000E+00
 -16.156  0.000E+00  0.000E+00
 -16.141  0.000E+00  0.000E+00
 -16.126  0.000E+00  0.000E+00
 -16.111  0.000E+00  0.000E+00
 -16.096  0.000E+00  0.000E+00
 -16.081  0.000E+00  0.000E+00
 -16.066  0.000E+00  0.000E+00
 -16.051  0.000E+00  0.000E+00
 -16.036  0.000E+00  0.000E+00
 -16.021  0.000E+00  0.000E+00
 -16.006  0.000E+00  0.000E+00
 -15.991  0.000E+00  0.000E+00
 -15.976  0.000E+00  0.000E+00
 -15.961  0.000E+00  0.000E+00
 -15.946  0.000E+00  0.000E+00
 -15.931  0.000E+00  0.000E+00
 -15.916  0.000E+00  0.000E+00
 -15.901  0.000E+00  0.000E+00
 -15.886  0.000E+00  0.000E+00
 -15.871  0.000E+00  0.000E+00
 -15.856  0.000E+00  0.000E+00
 -15.841  0.000E+00  0.000E+00
 -15.826  0.000E+00  0.000E+00
 -15.811  0.000E+00  0.000E+00
 -15.796  0.000E+00  0.000E+00
 -15.781  0.000E+00  0.000E+00
 -15.766  0.000E+00  0.000E+00
 -15.751  0.000E+00  0.000E+00
 -15.736  0.000E+00  0.000E+00
 -15.721  0.000E+00  0.000E+00
 -15.706  0.000E+00  0.000E+00
 -15.691  0.000E+00  0.000E+00
 -15.676  0.000E+00  0.000E+00
 -15.661  0.000E+00  0.000E+00
 -15.646  0.000E+00  0.000E+00
 -15.631  0.000E+00  0.000E+00
 -15.616  0.000E+00  0.000E+00
 -15.601  0.000E+00  0.000E+00
 -15.586  0.000E+00  0.000E+00
 -15.571  0.000E+00  0.000E+00
 -15.556  0.000E+00  0.000E+00
 -15.541  0.000E+00  0.000E+00
 -15.526  0.000E+00  0.000E+00
 -15.511  0.000E+00  0.000E+00
 -15.496  0.000E+00  0.000E+00
 -15.481  0.000E+00  0.000E+00
 -15.466  0.000E+00  0.000E+00
 -15.451  0.000E+00  0.000E+00
 -15.436  0.000E+00  0.000E+00
 -15.421  0.000E+00  0.000E+00
 -15.406  0.000E+00  0.000E+00
 -15.391  0.000E+00  0.000E+00
 -15.376  0.000E+00  0.000E+00
 -15.361  0.000E+00  0.000E+00
 -15.346  0.000E+00  0.000E+00
 -15.331  0.000E+00  0.000E+00
 -15.316  0.000E+00  0.000E+00
 -15.301  0.000E+00  0.000E+00
 -15.286  0.000E+00  0.000E+00
 -15.271  0.000E+00  0.000E+00
 -15.256  0.000E+00  0.000E+00
 -15.241  0.000E+00  0.000E+00
 -15.226  0.000E+00  0.000E+00
 -15.211  0.000E+00  0.000E+00
 -15.196  0.000E+00  0.000E+00
 -15.181  0.000E+00  0.000E+00
 -15.166  0.000E+00  0.000E+00
 -15.151  0.000E+00  0.000E+00
 -15.136  0.000E+00  0.000E+00
 -15.121  0.000E+00  0.000E+00
 -15.106  0.000E+00  0.000E+00
 -15.091  0.000E+00  0.000E+00
 -15.076  0.000E+00  0.000E+00
 -15.061  0.000E+00  0.000E+00
 -15.046  0.000E+00  0.000E+00
 -15.031  0.000E+00  0.000E+00
 -15.016  0.000E+00  0.000E+00
 -15.001  0.000E+00  0.000E+00
 -14.986  0.000E+00  0.000E+00
 -14.971  0.000E+00  0.000E+00
 -14.956  0.000E+00  0.000E+00
 -14.941  0.000E+00  0.000E+00
 -14.926  0.000E+00  0.000E+00
 -14.911  0.000E+00  0.000E+00
 -14.896  0.000E+00  0.000E+00
 -14.881  0.000E+00  0.000E+00
 -14.866  0.000E+00  0.000E+00
 -14.851  0.000E+00  0.000E+00
 -14.836  0.000E+00  0.000E+00
 -14.821  0.270E-14  0.270E-14
 -14.806  0.468E-14  0.468E-14
 -14.791  0.808E-14  0.808E-14
 -14.776  0.139E-13  0.139E-13
 -14.761  0.236E-13  0.236E-13
 -14.746  0.401E-13  0.401E-13
 -14.731  0.675E-13  0.675E-13
 -14.716  0.113E-12  0.113E-12
 -14.701  0.188E-12  0.188E-12
 -14.686  0.311E-12  0.311E-12
 -14.671  0.512E-12  0.512E-12
 -14.656  0.837E-12  0.837E-12
 -14.641  0.136E-11  0.136E-11
 -14.626  0.220E-11  0.220E-11
 -14.611  0.352E-11  0.352E-11
 -14.596  0.562E-11  0.562E-11
 -14.581  0.891E-11  0.891E-11
 -14.566  0.140E-10  0.140E-10
 -14.551  0.220E-10  0.220E-10
 -14.536  0.342E-10  0.342E-10
 -14.521  0.530E-10  0.530E-10
 -14.506  0.815E-10  0.815E-10
 -14.491  0.125E-09  0.125E-09
 -14.476  0.189E-09  0.189E-09
 -14.461  0.286E-09  0.286E-09
 -14.446  0.429E-09  0.429E-09
 -14.431  0.640E-09  0.640E-09
 -14.416  0.950E-09  0.950E-09
 -14.401  0.140E-08  0.140E-08
 -14.386  0.205E-08  0.205E-08
 -14.371  0.299E-08  0.299E-08
 -14.356  0.433E-08  0.433E-08
 -14.341  0.623E-08  0.623E-08
 -14.326  0.891E-08  0.891E-08
 -14.311  0.127E-07  0.127E-07
 -14.296  0.179E-07  0.179E-07
 -14.281  0.251E-07  0.251E-07
 -14.266  0.351E-07  0.351E-07
 -14.251  0.487E-07  0.487E-07
 -14.236  0.672E-07  0.672E-07
 -14.221  0.921E-07  0.921E-07
 -14.206  0.126E-06  0.126E-06
 -14.191  0.170E-06  0.170E-06
 -14.176  0.229E-06  0.229E-06
 -14.161  0.307E-06  0.307E-06
 -14.146  0.408E-06  0.408E-06
 -14.131  0.540E-06  0.540E-06
 -14.116  0.710E-06  0.710E-06
 -14.101  0.928E-06  0.928E-06
 -14.086  0.121E-05  0.121E-05
 -14.071  0.156E-05  0.156E-05
 -14.056  0.200E-05  0.200E-05
 -14.041  0.255E-05  0.255E-05
 -14.026  0.324E-05  0.324E-05
 -14.011  0.408E-05  0.408E-05
 -13.996  0.512E-05  0.512E-05
 -13.981  0.638E-05  0.638E-05
 -13.966  0.790E-05  0.790E-05
 -13.951  0.973E-05  0.973E-05
 -13.936  0.119E-04  0.119E-04
 -13.921  0.145E-04  0.145E-04
 -13.906  0.176E-04  0.176E-04
 -13.891  0.211E-04  0.211E-04
 -13.876  0.253E-04  0.253E-04
 -13.861  0.301E-04  0.301E-04
 -13.846  0.355E-04  0.355E-04
 -13.831  0.418E-04  0.418E-04
 -13.816  0.488E-04  0.488E-04
 -13.801  0.568E-04  0.568E-04
 -13.786  0.656E-04  0.656E-04
 -13.771  0.754E-04  0.754E-04
 -13.756  0.862E-04  0.862E-04
 -13.741  0.979E-04  0.979E-04
 -13.726  0.111E-03  0.111E-03
 -13.711  0.124E-03  0.124E-03
 -13.696  0.139E-03  0.139E-03
 -13.681  0.154E-03  0.154E-03
 -13.666  0.171E-03  0.171E-03
 -13.651  0.188E-03  0.188E-03
 -13.636  0.205E-03  0.205E-03
 -13.621  0.224E-03  0.224E-03
 -13.606  0.242E-03  0.242E-03
 -13.591  0.261E-03  0.261E-03
 -13.576  0.279E-03  0.279E-03
 -13.561  0.298E-03  0.298E-03
 -13.546  0.316E-03  0.316E-03
 -13.531  0.334E-03  0.334E-03
 -13.516  0.351E-03  0.351E-03
 -13.501  0.368E-03  0.368E-03
 -13.486  0.383E-03  0.383E-03
 -13.471  0.398E-03  0.398E-03
 -13.456  0.411E-03  0.411E-03
 -13.441  0.423E-03  0.423E-03
 -13.426  0.434E-03  0.434E-03
 -13.411  0.444E-03  0.444E-03
 -13.396  0.453E-03  0.453E-03
 -13.381  0.460E-03  0.460E-03
 -13.366  0.466E-03  0.466E-03
 -13.351  0.471E-03  0.471E-03
 -13.336  0.476E-03  0.476E-03
 -13.321  0.480E-03  0.480E-03
 -13.306  0.483E-03  0.483E-03
 -13.291  0.485E-03  0.485E-03
 -13.276  0.488E-03  0.488E-03
 -13.261  0.490E-03  0.490E-03
 -13.246  0.493E-03  0.493E-03
 -13.231  0.496E-03  0.496E-03
 -13.216  0.499E-03  0.499E-03
 -13.201  0.503E-03  0.503E-03
 -13.186  0.508E-03  0.508E-03
 -13.171  0.514E-03  0.514E-03
 -13.156  0.520E-03  0.520E-03
 -13.141  0.528E-03  0.528E-03
 -13.126  0.537E-03  0.537E-03
 -13.111  0.548E-03  0.548E-03
 -13.096  0.559E-03  0.559E-03
 -13.081  0.572E-03  0.572E-03
 -13.066  0.586E-03  0.586E-03
 -13.051  0.601E-03  0.601E-03
 -13.036  0.617E-03  0.617E-03
 -13.021  0.635E-03  0.635E-03
 -13.006  0.653E-03  0.653E-03
 -12.991  0.672E-03  0.672E-03
 -12.976  0.692E-03  0.692E-03
 -12.961  0.713E-03  0.713E-03
 -12.946  0.735E-03  0.735E-03
 -12.931  0.757E-03  0.757E-03
 -12.916  0.780E-03  0.780E-03
 -12.901  0.805E-03  0.805E-03
 -12.886  0.830E-03  0.830E-03
 -12.871  0.856E-03  0.856E-03
 -12.856  0.883E-03  0.883E-03
 -12.841  0.913E-03  0.913E-03
 -12.826  0.944E-03  0.944E-03
 -12.811  0.977E-03  0.977E-03
 -12.796  0.101E-02  0.101E-02
 -12.781  0.105E-02  0.105E-02
 -12.766  0.109E-02  0.109E-02
 -12.751  0.114E-02  0.114E-02
 -12.736  0.119E-02  0.119E-02
 -12.721  0.125E-02  0.125E-02
 -12.706  0.131E-02  0.131E-02
 -12.691  0.138E-02  0.138E-02
 -12.676  0.146E-02  0.146E-02
 -12.661  0.155E-02  0.155E-02
 -12.646  0.164E-02  0.164E-02
 -12.631  0.175E-02  0.175E-02
 -12.616  0.186E-02  0.186E-02
 -12.601  0.199E-02  0.199E-02
 -12.586  0.213E-02  0.213E-02
 -12.571  0.227E-02  0.227E-02
 -12.556  0.243E-02  0.243E-02
 -12.541  0.260E-02  0.260E-02
 -12.526  0.278E-02  0.278E-02
 -12.511  0.298E-02  0.298E-02
 -12.496  0.318E-02  0.318E-02
 -12.481  0.339E-02  0.339E-02
 -12.466  0.361E-02  0.361E-02
 -12.451  0.384E-02  0.384E-02
 -12.436  0.407E-02  0.407E-02
 -12.421  0.431E-02  0.431E-02
 -12.406  0.456E-02  0.456E-02
 -12.391  0.480E-02  0.480E-02
 -12.376  0.505E-02  0.505E-02
 -12.361  0.531E-02  0.531E-02
 -12.346  0.556E-02  0.556E-02
 -12.331  0.582E-02  0.582E-02
 -12.316  0.608E-02  0.608E-02
 -12.301  0.635E-02  0.635E-02
 -12.286  0.663E-02  0.663E-02
 -12.271  0.691E-02  0.691E-02
 -12.256  0.721E-02  0.721E-02
 -12.241  0.753E-02  0.753E-02
 -12.226  0.788E-02  0.788E-02
 -12.211  0.826E-02  0.826E-02
 -12.196  0.868E-02  0.868E-02
 -12.181  0.915E-02  0.915E-02
 -12.166  0.968E-02  0.968E-02
 -12.151  0.103E-01  0.103E-01
 -12.136  0.109E-01  0.109E-01
 -12.121  0.117E-01  0.117E-01
 -12.106  0.126E-01  0.126E-01
 -12.091  0.136E-01  0.136E-01
 -12.076  0.147E-01  0.147E-01
 -12.061  0.159E-01  0.159E-01
 -12.046  0.173E-01  0.173E-01
 -12.031  0.189E-01  0.189E-01
 -12.016  0.206E-01  0.206E-01
 -12.001  0.224E-01  0.224E-01
 -11.986  0.245E-01  0.245E-01
 -11.971  0.267E-01  0.267E-01
 -11.956  0.290E-01  0.290E-01
 -11.941  0.316E-01  0.316E-01
 -11.926  0.342E-01  0.342E-01
 -11.911  0.370E-01  0.370E-01
 -11.896  0.400E-01  0.400E-01
 -11.881  0.430E-01  0.430E-01
 -11.866  0.462E-01  0.462E-01
 -11.851  0.494E-01  0.494E-01
 -11.836  0.527E-01  0.527E-01
 -11.821  0.560E-01  0.560E-01
 -11.806  0.593E-01  0.593E-01
 -11.791  0.626E-01  0.626E-01
 -11.776  0.658E-01  0.658E-01
 -11.761  0.690E-01  0.690E-01
 -11.746  0.721E-01  0.721E-01
 -11.731  0.751E-01  0.751E-01
 -11.716  0.779E-01  0.779E-01
 -11.701  0.806E-01  0.806E-01
 -11.686  0.832E-01  0.832E-01
 -11.671  0.856E-01  0.856E-01
 -11.656  0.878E-01  0.878E-01
 -11.641  0.897E-01  0.897E-01
 -11.626  0.915E-01  0.915E-01
 -11.611  0.931E-01  0.931E-01
 -11.596  0.944E-01  0.944E-01
 -11.581  0.956E-01  0.956E-01
 -11.566  0.965E-01  0.965E-01
 -11.551  0.971E-01  0.971E-01
 -11.536  0.976E-01  0.976E-01
 -11.521  0.978E-01  0.978E-01
 -11.506  0.977E-01  0.977E-01
 -11.491  0.975E-01  0.975E-01
 -11.476  0.970E-01  0.970E-01
 -11.461  0.963E-01  0.963E-01
 -11.446  0.954E-01  0.954E-01
 -11.431  0.943E-01  0.943E-01
 -11.416  0.931E-01  0.931E-01
 -11.401  0.916E-01  0.916E-01
 -11.386  0.900E-01  0.900E-01
 -11.371  0.883E-01  0.883E-01
 -11.356  0.864E-01  0.864E-01
 -11.341  0.845E-01  0.845E-01
 -11.326  0.825E-01  0.825E-01
 -11.311  0.804E-01  0.804E-01
 -11.296  0.783E-01  0.783E-01
 -11.281  0.763E-01  0.763E-01
 -11.266  0.743E-01  0.743E-01
 -11.251  0.723E-01  0.723E-01
 -11.236  0.705E-01  0.705E-01
 -11.221  0.688E-01  0.688E-01
 -11.206  0.673E-01  0.673E-01
 -11.191  0.659E-01  0.659E-01
 -11.176  0.648E-01  0.648E-01
 -11.161  0.639E-01  0.639E-01
 -11.146  0.633E-01  0.633E-01
 -11.131  0.630E-01  0.630E-01
 -11.116  0.631E-01  0.631E-01
 -11.101  0.634E-01  0.634E-01
 -11.086  0.642E-01  0.642E-01
 -11.071  0.653E-01  0.653E-01
 -11.056  0.668E-01  0.668E-01
 -11.041  0.687E-01  0.687E-01
 -11.026  0.710E-01  0.710E-01
 -11.011  0.737E-01  0.737E-01
 -10.996  0.768E-01  0.768E-01
 -10.981  0.803E-01  0.803E-01
 -10.966  0.841E-01  0.841E-01
 -10.951  0.884E-01  0.884E-01
 -10.936  0.930E-01  0.930E-01
 -10.921  0.979E-01  0.979E-01
 -10.906  0.103E+00  0.103E+00
 -10.891  0.108E+00  0.108E+00
 -10.876  0.114E+00  0.114E+00
 -10.861  0.120E+00  0.120E+00
 -10.846  0.126E+00  0.126E+00
 -10.831  0.132E+00  0.132E+00
 -10.816  0.138E+00  0.138E+00
 -10.801  0.144E+00  0.144E+00
 -10.786  0.150E+00  0.150E+00
 -10.771  0.155E+00  0.155E+00
 -10.756  0.161E+00  0.161E+00
 -10.741  0.166E+00  0.166E+00
 -10.726  0.171E+00  0.171E+00
 -10.711  0.175E+00  0.175E+00
 -10.696  0.180E+00  0.180E+00
 -10.681  0.183E+00  0.183E+00
 -10.666  0.187E+00  0.187E+00
 -10.651  0.189E+00  0.189E+00
 -10.636  0.191E+00  0.191E+00
 -10.621  0.193E+00  0.193E+00
 -10.606  0.194E+00  0.194E+00
 -10.591  0.195E+00  0.195E+00
 -10.576  0.194E+00  0.194E+00
 -10.561  0.194E+00  0.194E+00
 -10.546  0.192E+00  0.192E+00
 -10.531  0.191E+00  0.191E+00
 -10.516  0.188E+00  0.188E+00
 -10.501  0.185E+00  0.185E+00
 -10.486  0.182E+00  0.182E+00
 -10.471  0.178E+00  0.178E+00
 -10.456  0.174E+00  0.174E+00
 -10.441  0.169E+00  0.169E+00
 -10.426  0.164E+00  0.164E+00
 -10.411  0.159E+00  0.159E+00
 -10.396  0.153E+00  0.153E+00
 -10.381  0.148E+00  0.148E+00
 -10.366  0.141E+00  0.141E+00
 -10.351  0.135E+00  0.135E+00
 -10.336  0.129E+00  0.129E+00
 -10.321  0.122E+00  0.122E+00
 -10.306  0.116E+00  0.116E+00
 -10.291  0.110E+00  0.110E+00
 -10.276  0.103E+00  0.103E+00
 -10.261  0.968E-01  0.968E-01
 -10.246  0.905E-01  0.905E-01
 -10.231  0.845E-01  0.845E-01
 -10.216  0.786E-01  0.786E-01
 -10.201  0.729E-01  0.729E-01
 -10.186  0.675E-01  0.675E-01
 -10.171  0.624E-01  0.624E-01
 -10.156  0.575E-01  0.575E-01
 -10.141  0.529E-01  0.529E-01
 -10.126  0.487E-01  0.487E-01
 -10.111  0.447E-01  0.447E-01
 -10.096  0.411E-01  0.411E-01
 -10.081  0.378E-01  0.378E-01
 -10.066  0.349E-01  0.349E-01
 -10.051  0.322E-01  0.322E-01
 -10.036  0.299E-01  0.299E-01
 -10.021  0.278E-01  0.278E-01
 -10.006  0.261E-01  0.261E-01
  -9.991  0.246E-01  0.246E-01
  -9.976  0.233E-01  0.233E-01
  -9.961  0.223E-01  0.223E-01
  -9.946  0.215E-01  0.215E-01
  -9.931  0.208E-01  0.208E-01
  -9.916  0.203E-01  0.203E-01
  -9.901  0.200E-01  0.200E-01
  -9.886  0.197E-01  0.197E-01
  -9.871  0.196E-01  0.196E-01
  -9.856  0.195E-01  0.195E-01
  -9.841  0.195E-01  0.195E-01
  -9.826  0.195E-01  0.195E-01
  -9.811  0.195E-01  0.195E-01
  -9.796  0.196E-01  0.196E-01
  -9.781  0.197E-01  0.197E-01
  -9.766  0.197E-01  0.197E-01
  -9.751  0.197E-01  0.197E-01
  -9.736  0.198E-01  0.198E-01
  -9.721  0.198E-01  0.198E-01
  -9.706  0.198E-01  0.198E-01
  -9.691  0.198E-01  0.198E-01
  -9.676  0.198E-01  0.198E-01
  -9.661  0.198E-01  0.198E-01
  -9.646  0.198E-01  0.198E-01
  -9.631  0.199E-01  0.199E-01
  -9.616  0.200E-01  0.200E-01
  -9.601  0.202E-01  0.202E-01
  -9.586  0.204E-01  0.204E-01
  -9.571  0.208E-01  0.208E-01
  -9.556  0.212E-01  0.212E-01
  -9.541  0.218E-01  0.218E-01
  -9.526  0.225E-01  0.225E-01
  -9.511  0.234E-01  0.234E-01
  -9.496  0.244E-01  0.244E-01
  -9.481  0.256E-01  0.256E-01
  -9.466  0.270E-01  0.270E-01
  -9.451  0.285E-01  0.285E-01
  -9.436  0.303E-01  0.303E-01
  -9.421  0.323E-01  0.323E-01
  -9.406  0.344E-01  0.344E-01
  -9.391  0.368E-01  0.368E-01
  -9.376  0.393E-01  0.393E-01
  -9.361  0.420E-01  0.420E-01
  -9.346  0.449E-01  0.449E-01
  -9.331  0.479E-01  0.479E-01
  -9.316  0.511E-01  0.511E-01
  -9.301  0.543E-01  0.543E-01
  -9.286  0.577E-01  0.577E-01
  -9.271  0.611E-01  0.611E-01
  -9.256  0.646E-01  0.646E-01
  -9.241  0.680E-01  0.680E-01
  -9.226  0.715E-01  0.715E-01
  -9.211  0.749E-01  0.749E-01
  -9.196  0.782E-01  0.782E-01
  -9.181  0.814E-01  0.814E-01
  -9.166  0.845E-01  0.845E-01
  -9.151  0.875E-01  0.875E-01
  -9.136  0.902E-01  0.902E-01
  -9.121  0.928E-01  0.928E-01
  -9.106  0.951E-01  0.951E-01
  -9.091  0.972E-01  0.972E-01
  -9.076  0.991E-01  0.991E-01
  -9.061  0.101E+00  0.101E+00
  -9.046  0.102E+00  0.102E+00
  -9.031  0.103E+00  0.103E+00
  -9.016  0.104E+00  0.104E+00
  -9.001  0.104E+00  0.104E+00
  -8.986  0.105E+00  0.105E+00
  -8.971  0.105E+00  0.105E+00
  -8.956  0.104E+00  0.104E+00
  -8.941  0.104E+00  0.104E+00
  -8.926  0.103E+00  0.103E+00
  -8.911  0.102E+00  0.102E+00
  -8.896  0.100E+00  0.100E+00
  -8.881  0.990E-01  0.990E-01
  -8.866  0.973E-01  0.973E-01
  -8.851  0.955E-01  0.955E-01
  -8.836  0.935E-01  0.935E-01
  -8.821  0.913E-01  0.913E-01
  -8.806  0.890E-01  0.890E-01
  -8.791  0.866E-01  0.866E-01
  -8.776  0.841E-01  0.841E-01
  -8.761  0.815E-01  0.815E-01
  -8.746  0.788E-01  0.788E-01
  -8.731  0.760E-01  0.760E-01
  -8.716  0.733E-01  0.733E-01
  -8.701  0.705E-01  0.705E-01
  -8.686  0.676E-01  0.676E-01
  -8.671  0.648E-01  0.648E-01
  -8.656  0.620E-01  0.620E-01
  -8.641  0.592E-01  0.592E-01
  -8.626  0.564E-01  0.564E-01
  -8.611  0.537E-01  0.537E-01
  -8.596  0.511E-01  0.511E-01
  -8.581  0.485E-01  0.485E-01
  -8.566  0.460E-01  0.460E-01
  -8.551  0.436E-01  0.436E-01
  -8.536  0.413E-01  0.413E-01
  -8.521  0.390E-01  0.390E-01
  -8.506  0.369E-01  0.369E-01
  -8.491  0.349E-01  0.349E-01
  -8.476  0.331E-01  0.331E-01
  -8.461  0.313E-01  0.313E-01
  -8.446  0.297E-01  0.297E-01
  -8.431  0.282E-01  0.282E-01
  -8.416  0.269E-01  0.269E-01
  -8.401  0.256E-01  0.256E-01
  -8.386  0.245E-01  0.245E-01
  -8.371  0.236E-01  0.236E-01
  -8.356  0.227E-01  0.227E-01
  -8.341  0.220E-01  0.220E-01
  -8.326  0.214E-01  0.214E-01
  -8.311  0.209E-01  0.209E-01
  -8.296  0.205E-01  0.205E-01
  -8.281  0.202E-01  0.202E-01
  -8.266  0.201E-01  0.201E-01
  -8.251  0.200E-01  0.200E-01
  -8.236  0.199E-01  0.199E-01
  -8.221  0.200E-01  0.200E-01
  -8.206  0.201E-01  0.201E-01
  -8.191  0.203E-01  0.203E-01
  -8.176  0.205E-01  0.205E-01
  -8.161  0.207E-01  0.207E-01
  -8.146  0.211E-01  0.211E-01
  -8.131  0.214E-01  0.214E-01
  -8.116  0.218E-01  0.218E-01
  -8.101  0.222E-01  0.222E-01
  -8.086  0.226E-01  0.226E-01
  -8.071  0.230E-01  0.230E-01
  -8.056  0.235E-01  0.235E-01
  -8.041  0.240E-01  0.240E-01
  -8.026  0.244E-01  0.244E-01
  -8.011  0.249E-01  0.249E-01
  -7.996  0.254E-01  0.254E-01
  -7.981  0.258E-01  0.258E-01
  -7.966  0.263E-01  0.263E-01
  -7.951  0.267E-01  0.267E-01
  -7.936  0.271E-01  0.271E-01
  -7.921  0.275E-01  0.275E-01
  -7.906  0.279E-01  0.279E-01
  -7.891  0.282E-01  0.282E-01
  -7.876  0.284E-01  0.284E-01
  -7.861  0.286E-01  0.286E-01
  -7.846  0.288E-01  0.288E-01
  -7.831  0.288E-01  0.288E-01
  -7.816  0.289E-01  0.289E-01
  -7.801  0.288E-01  0.288E-01
  -7.786  0.287E-01  0.287E-01
  -7.771  0.284E-01  0.284E-01
  -7.756  0.282E-01  0.282E-01
  -7.741  0.278E-01  0.278E-01
  -7.726  0.274E-01  0.274E-01
  -7.711  0.268E-01  0.268E-01
  -7.696  0.263E-01  0.263E-01
  -7.681  0.256E-01  0.256E-01
  -7.666  0.249E-01  0.249E-01
  -7.651  0.242E-01  0.242E-01
  -7.636  0.234E-01  0.234E-01
  -7.621  0.226E-01  0.226E-01
  -7.606  0.218E-01  0.218E-01
  -7.591  0.209E-01  0.209E-01
  -7.576  0.201E-01  0.201E-01
  -7.561  0.192E-01  0.192E-01
  -7.546  0.184E-01  0.184E-01
  -7.531  0.176E-01  0.176E-01
  -7.516  0.168E-01  0.168E-01
  -7.501  0.160E-01  0.160E-01
  -7.486  0.153E-01  0.153E-01
  -7.471  0.146E-01  0.146E-01
  -7.456  0.140E-01  0.140E-01
  -7.441  0.134E-01  0.134E-01
  -7.426  0.128E-01  0.128E-01
  -7.411  0.124E-01  0.124E-01
  -7.396  0.119E-01  0.119E-01
  -7.381  0.115E-01  0.115E-01
  -7.366  0.112E-01  0.112E-01
  -7.351  0.110E-01  0.110E-01
  -7.336  0.107E-01  0.107E-01
  -7.321  0.106E-01  0.106E-01
  -7.306  0.104E-01  0.104E-01
  -7.291  0.104E-01  0.104E-01
  -7.276  0.103E-01  0.103E-01
  -7.261  0.103E-01  0.103E-01
  -7.246  0.104E-01  0.104E-01
  -7.231  0.105E-01  0.105E-01
  -7.216  0.106E-01  0.106E-01
  -7.201  0.107E-01  0.107E-01
  -7.186  0.109E-01  0.109E-01
  -7.171  0.111E-01  0.111E-01
  -7.156  0.113E-01  0.113E-01
  -7.141  0.115E-01  0.115E-01
  -7.126  0.118E-01  0.118E-01
  -7.111  0.120E-01  0.120E-01
  -7.096  0.122E-01  0.122E-01
  -7.081  0.125E-01  0.125E-01
  -7.066  0.127E-01  0.127E-01
  -7.051  0.130E-01  0.130E-01
  -7.036  0.132E-01  0.132E-01
  -7.021  0.134E-01  0.134E-01
  -7.006  0.136E-01  0.136E-01
  -6.991  0.137E-01  0.137E-01
  -6.976  0.139E-01  0.139E-01
  -6.961  0.140E-01  0.140E-01
  -6.946  0.141E-01  0.141E-01
  -6.931  0.142E-01  0.142E-01
  -6.916  0.142E-01  0.142E-01
  -6.901  0.142E-01  0.142E-01
  -6.886  0.142E-01  0.142E-01
  -6.871  0.141E-01  0.141E-01
  -6.856  0.140E-01  0.140E-01
  -6.841  0.139E-01  0.139E-01
  -6.826  0.138E-01  0.138E-01
  -6.811  0.136E-01  0.136E-01
  -6.796  0.134E-01  0.134E-01
  -6.781  0.132E-01  0.132E-01
  -6.766  0.129E-01  0.129E-01
  -6.751  0.126E-01  0.126E-01
  -6.736  0.124E-01  0.124E-01
  -6.721  0.121E-01  0.121E-01
  -6.706  0.118E-01  0.118E-01
  -6.691  0.114E-01  0.114E-01
  -6.676  0.111E-01  0.111E-01
  -6.661  0.108E-01  0.108E-01
  -6.646  0.105E-01  0.105E-01
  -6.631  0.101E-01  0.101E-01
  -6.616  0.982E-02  0.982E-02
  -6.601  0.950E-02  0.950E-02
  -6.586  0.919E-02  0.919E-02
  -6.571  0.889E-02  0.889E-02
  -6.556  0.860E-02  0.860E-02
  -6.541  0.832E-02  0.832E-02
  -6.526  0.805E-02  0.805E-02
  -6.511  0.780E-02  0.780E-02
  -6.496  0.756E-02  0.756E-02
  -6.481  0.733E-02  0.733E-02
  -6.466  0.711E-02  0.711E-02
  -6.451  0.691E-02  0.691E-02
  -6.436  0.671E-02  0.671E-02
  -6.421  0.653E-02  0.653E-02
  -6.406  0.636E-02  0.636E-02
  -6.391  0.620E-02  0.620E-02
  -6.376  0.605E-02  0.605E-02
  -6.361  0.591E-02  0.591E-02
  -6.346  0.578E-02  0.578E-02
  -6.331  0.566E-02  0.566E-02
  -6.316  0.554E-02  0.554E-02
  -6.301  0.543E-02  0.543E-02
  -6.286  0.534E-02  0.534E-02
  -6.271  0.525E-02  0.525E-02
  -6.256  0.517E-02  0.517E-02
  -6.241  0.510E-02  0.510E-02
  -6.226  0.504E-02  0.504E-02
  -6.211  0.499E-02  0.499E-02
  -6.196  0.496E-02  0.496E-02
  -6.181  0.494E-02  0.494E-02
  -6.166  0.493E-02  0.493E-02
  -6.151  0.494E-02  0.494E-02
  -6.136  0.496E-02  0.496E-02
  -6.121  0.501E-02  0.501E-02
  -6.106  0.506E-02  0.506E-02
  -6.091  0.514E-02  0.514E-02
  -6.076  0.523E-02  0.523E-02
  -6.061  0.534E-02  0.534E-02
  -6.046  0.547E-02  0.547E-02
  -6.031  0.561E-02  0.561E-02
  -6.016  0.576E-02  0.576E-02
  -6.001  0.592E-02  0.592E-02
  -5.986  0.609E-02  0.609E-02
  -5.971  0.627E-02  0.627E-02
  -5.956  0.646E-02  0.646E-02
  -5.941  0.665E-02  0.665E-02
  -5.926  0.683E-02  0.683E-02
  -5.911  0.701E-02  0.701E-02
  -5.896  0.719E-02  0.719E-02
  -5.881  0.736E-02  0.736E-02
  -5.866  0.751E-02  0.751E-02
  -5.851  0.766E-02  0.766E-02
  -5.836  0.778E-02  0.778E-02
  -5.821  0.789E-02  0.789E-02
  -5.806  0.798E-02  0.798E-02
  -5.791  0.806E-02  0.806E-02
  -5.776  0.811E-02  0.811E-02
  -5.761  0.814E-02  0.814E-02
  -5.746  0.815E-02  0.815E-02
  -5.731  0.813E-02  0.813E-02
  -5.716  0.810E-02  0.810E-02
  -5.701  0.805E-02  0.805E-02
  -5.686  0.798E-02  0.798E-02
  -5.671  0.789E-02  0.789E-02
  -5.656  0.778E-02  0.778E-02
  -5.641  0.766E-02  0.766E-02
  -5.626  0.753E-02  0.753E-02
  -5.611  0.739E-02  0.739E-02
  -5.596  0.723E-02  0.723E-02
  -5.581  0.707E-02  0.707E-02
  -5.566  0.690E-02  0.690E-02
  -5.551  0.673E-02  0.673E-02
  -5.536  0.655E-02  0.655E-02
  -5.521  0.637E-02  0.637E-02
  -5.506  0.619E-02  0.619E-02
  -5.491  0.601E-02  0.601E-02
  -5.476  0.583E-02  0.583E-02
  -5.461  0.565E-02  0.565E-02
  -5.446  0.547E-02  0.547E-02
  -5.431  0.530E-02  0.530E-02
  -5.416  0.513E-02  0.513E-02
  -5.401  0.497E-02  0.497E-02
  -5.386  0.481E-02  0.481E-02
  -5.371  0.466E-02  0.466E-02
  -5.356  0.451E-02  0.451E-02
  -5.341  0.437E-02  0.437E-02
  -5.326  0.424E-02  0.424E-02
  -5.311  0.411E-02  0.411E-02
  -5.296  0.399E-02  0.399E-02
  -5.281  0.388E-02  0.388E-02
  -5.266  0.378E-02  0.378E-02
  -5.251  0.367E-02  0.367E-02
  -5.236  0.358E-02  0.358E-02
  -5.221  0.349E-02  0.349E-02
  -5.206  0.341E-02  0.341E-02
  -5.191  0.333E-02  0.333E-02
  -5.176  0.325E-02  0.325E-02
  -5.161  0.318E-02  0.318E-02
  -5.146  0.311E-02  0.311E-02
  -5.131  0.305E-02  0.305E-02
  -5.116  0.299E-02  0.299E-02
  -5.101  0.293E-02  0.293E-02
  -5.086  0.287E-02  0.287E-02
  -5.071  0.282E-02  0.282E-02
  -5.056  0.276E-02  0.276E-02
  -5.041  0.271E-02  0.271E-02
  -5.026  0.267E-02  0.267E-02
  -5.011  0.262E-02  0.262E-02
  -4.996  0.258E-02  0.258E-02
  -4.981  0.254E-02  0.254E-02
  -4.966  0.251E-02  0.251E-02
  -4.951  0.248E-02  0.248E-02
  -4.936  0.245E-02  0.245E-02
  -4.921  0.244E-02  0.244E-02
  -4.906  0.242E-02  0.242E-02
  -4.891  0.241E-02  0.241E-02
  -4.876  0.241E-02  0.241E-02
  -4.861  0.241E-02  0.241E-02
  -4.846  0.242E-02  0.242E-02
  -4.831  0.244E-02  0.244E-02
  -4.816  0.246E-02  0.246E-02
  -4.801  0.248E-02  0.248E-02
  -4.786  0.251E-02  0.251E-02
  -4.771  0.254E-02  0.254E-02
  -4.756  0.257E-02  0.257E-02
  -4.741  0.260E-02  0.260E-02
  -4.726  0.263E-02  0.263E-02
  -4.711  0.266E-02  0.266E-02
  -4.696  0.268E-02  0.268E-02
  -4.681  0.270E-02  0.270E-02
  -4.666  0.271E-02  0.271E-02
  -4.651  0.272E-02  0.272E-02
  -4.636  0.272E-02  0.272E-02
  -4.621  0.271E-02  0.271E-02
  -4.606  0.269E-02  0.269E-02
  -4.591  0.266E-02  0.266E-02
  -4.576  0.263E-02  0.263E-02
  -4.561  0.258E-02  0.258E-02
  -4.546  0.252E-02  0.252E-02
  -4.531  0.245E-02  0.245E-02
  -4.516  0.237E-02  0.237E-02
  -4.501  0.229E-02  0.229E-02
  -4.486  0.219E-02  0.219E-02
  -4.471  0.209E-02  0.209E-02
  -4.456  0.199E-02  0.199E-02
  -4.441  0.188E-02  0.188E-02
  -4.426  0.177E-02  0.177E-02
  -4.411  0.165E-02  0.165E-02
  -4.396  0.154E-02  0.154E-02
  -4.381  0.142E-02  0.142E-02
  -4.366  0.131E-02  0.131E-02
  -4.351  0.120E-02  0.120E-02
  -4.336  0.109E-02  0.109E-02
  -4.321  0.987E-03  0.987E-03
  -4.306  0.889E-03  0.889E-03
  -4.291  0.797E-03  0.797E-03
  -4.276  0.710E-03  0.710E-03
  -4.261  0.629E-03  0.629E-03
  -4.246  0.554E-03  0.554E-03
  -4.231  0.485E-03  0.485E-03
  -4.216  0.423E-03  0.423E-03
  -4.201  0.366E-03  0.366E-03
  -4.186  0.315E-03  0.315E-03
  -4.171  0.270E-03  0.270E-03
  -4.156  0.230E-03  0.230E-03
  -4.141  0.195E-03  0.195E-03
  -4.126  0.164E-03  0.164E-03
  -4.111  0.138E-03  0.138E-03
  -4.096  0.115E-03  0.115E-03
  -4.081  0.948E-04  0.948E-04
  -4.066  0.781E-04  0.781E-04
  -4.051  0.639E-04  0.639E-04
  -4.036  0.520E-04  0.520E-04
  -4.021  0.421E-04  0.421E-04
  -4.006  0.339E-04  0.339E-04
  -3.991  0.271E-04  0.271E-04
  -3.976  0.216E-04  0.216E-04
  -3.961  0.170E-04  0.170E-04
  -3.946  0.134E-04  0.134E-04
  -3.931  0.105E-04  0.105E-04
  -3.916  0.814E-05  0.814E-05
  -3.901  0.629E-05  0.629E-05
  -3.886  0.483E-05  0.483E-05
  -3.871  0.369E-05  0.369E-05
  -3.856  0.280E-05  0.280E-05
  -3.841  0.212E-05  0.212E-05
  -3.826  0.159E-05  0.159E-05
  -3.811  0.119E-05  0.119E-05
  -3.796  0.879E-06  0.879E-06
  -3.781  0.649E-06  0.649E-06
  -3.766  0.476E-06  0.476E-06
  -3.751  0.347E-06  0.347E-06
  -3.736  0.251E-06  0.251E-06
  -3.721  0.181E-06  0.181E-06
  -3.706  0.130E-06  0.130E-06
  -3.691  0.923E-07  0.923E-07
  -3.676  0.653E-07  0.653E-07
  -3.661  0.460E-07  0.460E-07
  -3.646  0.322E-07  0.322E-07
  -3.631  0.224E-07  0.224E-07
  -3.616  0.155E-07  0.155E-07
  -3.601  0.106E-07  0.106E-07
  -3.586  0.726E-08  0.726E-08
  -3.571  0.493E-08  0.493E-08
  -3.556  0.333E-08  0.333E-08
  -3.541  0.224E-08  0.224E-08
  -3.526  0.149E-08  0.149E-08
  -3.511  0.990E-09  0.990E-09
  -3.496  0.653E-09  0.653E-09
  -3.481  0.428E-09  0.428E-09
  -3.466  0.279E-09  0.279E-09
  -3.451  0.181E-09  0.181E-09
  -3.436  0.116E-09  0.116E-09
  -3.421  0.745E-10  0.745E-10
  -3.406  0.474E-10  0.474E-10
  -3.391  0.300E-10  0.300E-10
  -3.376  0.189E-10  0.189E-10
  -3.361  0.118E-10  0.118E-10
  -3.346  0.733E-11  0.733E-11
  -3.331  0.453E-11  0.453E-11
  -3.316  0.278E-11  0.278E-11
  -3.301  0.170E-11  0.170E-11
  -3.286  0.103E-11  0.103E-11
  -3.271  0.620E-12  0.620E-12
  -3.256  0.370E-12  0.370E-12
  -3.241  0.219E-12  0.219E-12
  -3.226  0.129E-12  0.129E-12
  -3.211  0.758E-13  0.758E-13
  -3.196  0.444E-13  0.444E-13
  -3.181  0.216E-13  0.216E-13
  -3.166  0.117E-13  0.117E-13
  -3.151  0.655E-14  0.655E-14
  -3.136  0.134E-14  0.134E-14
  -3.121  0.000E+00  0.000E+00
  -3.106  0.000E+00  0.000E+00
  -3.091  0.000E+00  0.000E+00
  -3.076  0.000E+00  0.000E+00
  -3.061  0.000E+00  0.000E+00
  -3.046  0.000E+00  0.000E+00
  -3.031  0.000E+00  0.000E+00
  -3.016  0.000E+00  0.000E+00
  -3.001  0.000E+00  0.000E+00
  -2.986  0.000E+00  0.000E+00
  -2.971  0.000E+00  0.000E+00
  -2.956  0.000E+00  0.000E+00
  -2.941  0.000E+00  0.000E+00
  -2.926  0.000E+00  0.000E+00
  -2.911  0.000E+00  0.000E+00
  -2.896  0.000E+00  0.000E+00
  -2.881  0.000E+00  0.000E+00
  -2.866  0.000E+00  0.000E+00
  -2.851  0.000E+00  0.000E+00
  -2.836  0.000E+00  0.000E+00
  -2.821  0.000E+00  0.000E+00
  -2.806  0.000E+00  0.000E+00
  -2.791  0.000E+00  0.000E+00
  -2.776  0.000E+00  0.000E+00
  -2.761  0.000E+00  0.000E+00
  -2.746  0.000E+00  0.000E+00
  -2.731  0.000E+00  0.000E+00
  -2.716  0.000E+00  0.000E+00
  -2.701  0.000E+00  0.000E+00
  -2.686  0.000E+00  0.000E+00
  -2.671  0.000E+00  0.000E+00
  -2.656  0.000E+00  0.000E+00
  -2.641  0.000E+00  0.000E+00
  -2.626  0.000E+00  0.000E+00
  -2.611  0.000E+00  0.000E+00
  -2.596  0.000E+00  0.000E+00
  -2.581  0.000E+00  0.000E+00
  -2.566  0.000E+00  0.000E+00
  -2.551  0.000E+00  0.000E+00
  -2.536  0.000E+00  0.000E+00
  -2.521  0.000E+00  0.000E+00
  -2.506  0.000E+00  0.000E+00
  -2.491  0.000E+00  0.000E+00
  -2.476  0.000E+00  0.000E+00
  -2.461  0.000E+00  0.000E+00
  -2.446  0.000E+00  0.000E+00
  -2.431  0.000E+00  0.000E+00
  -2.416  0.000E+00  0.000E+00
  -2.401  0.000E+00  0.000E+00
  -2.386  0.000E+00  0.000E+00
  -2.371  0.000E+00  0.000E+00
  -2.356  0.000E+00  0.000E+00
  -2.341  0.000E+00  0.000E+00
  -2.326  0.000E+00  0.000E+00
  -2.311  0.000E+00  0.000E+00
  -2.296  0.000E+00  0.000E+00
  -2.281  0.000E+00  0.000E+00
  -2.266  0.000E+00  0.000E+00
  -2.251  0.000E+00  0.000E+00
  -2.236  0.000E+00  0.000E+00
  -2.221  0.000E+00  0.000E+00
  -2.206  0.000E+00  0.000E+00
  -2.191  0.000E+00  0.000E+00
  -2.176  0.000E+00  0.000E+00
  -2.161  0.000E+00  0.000E+00
  -2.146  0.000E+00  0.000E+00
  -2.131  0.000E+00  0.000E+00
  -2.116  0.000E+00  0.000E+00
  -2.101  0.000E+00  0.000E+00
  -2.086  0.000E+00  0.000E+00
  -2.071  0.000E+00  0.000E+00
  -2.056  0.000E+00  0.000E+00
  -2.041  0.000E+00  0.000E+00
  -2.026  0.000E+00  0.000E+00
  -2.011  0.000E+00  0.000E+00
  -1.996  0.000E+00  0.000E+00
  -1.981  0.000E+00  0.000E+00
  -1.966  0.000E+00  0.000E+00
  -1.951  0.000E+00  0.000E+00
  -1.936  0.000E+00  0.000E+00
  -1.921  0.000E+00  0.000E+00
  -1.906  0.000E+00  0.000E+00
  -1.891  0.000E+00  0.000E+00
  -1.876  0.000E+00  0.000E+00
  -1.861  0.000E+00  0.000E+00
  -1.846  0.000E+00  0.000E+00
  -1.831  0.000E+00  0.000E+00
  -1.816  0.000E+00  0.000E+00
  -1.801  0.000E+00  0.000E+00
  -1.786  0.000E+00  0.000E+00
  -1.771  0.000E+00  0.000E+00
  -1.756  0.000E+00  0.000E+00
  -1.741  0.000E+00  0.000E+00
  -1.726  0.000E+00  0.000E+00
  -1.711  0.000E+00  0.000E+00
  -1.696  0.000E+00  0.000E+00
  -1.681  0.000E+00  0.000E+00
  -1.666  0.000E+00  0.000E+00
  -1.651  0.000E+00  0.000E+00
  -1.636  0.000E+00  0.000E+00
  -1.621  0.000E+00  0.000E+00
  -1.606  0.000E+00  0.000E+00
  -1.591  0.000E+00  0.000E+00
  -1.576  0.000E+00  0.000E+00
  -1.561  0.000E+00  0.000E+00
  -1.546  0.000E+00  0.000E+00
  -1.531  0.000E+00  0.000E+00
  -1.516  0.000E+00  0.000E+00
  -1.501  0.000E+00  0.000E+00
  -1.486  0.000E+00  0.000E+00
  -1.471  0.000E+00  0.000E+00
  -1.456  0.000E+00  0.000E+00
  -1.441  0.000E+00  0.000E+00
  -1.426  0.000E+00  0.000E+00
  -1.411  0.000E+00  0.000E+00
  -1.396  0.000E+00  0.000E+00
  -1.381  0.000E+00  0.000E+00
  -1.366  0.000E+00  0.000E+00
  -1.351  0.000E+00  0.000E+00
  -1.336  0.000E+00  0.000E+00
  -1.321  0.000E+00  0.000E+00
  -1.306  0.000E+00  0.000E+00
  -1.291  0.000E+00  0.000E+00
  -1.276  0.000E+00  0.000E+00
  -1.261  0.000E+00  0.000E+00
  -1.246  0.000E+00  0.000E+00
  -1.231  0.000E+00  0.000E+00
  -1.216  0.000E+00  0.000E+00
  -1.201  0.000E+00  0.000E+00
  -1.186  0.000E+00  0.000E+00
  -1.171  0.000E+00  0.000E+00
  -1.156  0.000E+00  0.000E+00
  -1.141  0.000E+00  0.000E+00
  -1.126  0.000E+00  0.000E+00
  -1.111  0.000E+00  0.000E+00
  -1.096  0.000E+00  0.000E+00
  -1.081  0.000E+00  0.000E+00
  -1.066  0.000E+00  0.000E+00
  -1.051  0.000E+00  0.000E+00
  -1.036  0.000E+00  0.000E+00
  -1.021  0.000E+00  0.000E+00
  -1.006  0.000E+00  0.000E+00
  -0.991  0.000E+00  0.000E+00
  -0.976  0.000E+00  0.000E+00
  -0.961  0.000E+00  0.000E+00
  -0.946  0.000E+00  0.000E+00
  -0.931  0.000E+00  0.000E+00
  -0.916  0.000E+00  0.000E+00
  -0.901  0.000E+00  0.000E+00
  -0.886  0.000E+00  0.000E+00
  -0.871  0.000E+00  0.000E+00
  -0.856  0.000E+00  0.000E+00
  -0.841  0.000E+00  0.000E+00
  -0.826  0.000E+00  0.000E+00
  -0.811  0.000E+00  0.000E+00
  -0.796  0.000E+00  0.000E+00
  -0.781  0.000E+00  0.000E+00
  -0.766  0.000E+00  0.000E+00
  -0.751  0.000E+00  0.000E+00
  -0.736  0.000E+00  0.000E+00
  -0.721  0.000E+00  0.000E+00
  -0.706  0.000E+00  0.000E+00
  -0.691  0.000E+00  0.000E+00
  -0.676  0.000E+00  0.000E+00
  -0.661  0.000E+00  0.000E+00
  -0.646  0.000E+00  0.000E+00
  -0.631  0.000E+00  0.000E+00
  -0.616  0.000E+00  0.000E+00
  -0.601  0.152E-12  0.152E-12
  -0.586  0.348E-12  0.348E-12
  -0.571  0.668E-12  0.668E-12
  -0.556  0.115E-11  0.115E-11
  -0.541  0.206E-11  0.206E-11
  -0.526  0.350E-11  0.350E-11
  -0.511  0.592E-11  0.592E-11
  -0.496  0.100E-10  0.100E-10
  -0.481  0.168E-10  0.168E-10
  -0.466  0.279E-10  0.279E-10
  -0.451  0.460E-10  0.460E-10
  -0.436  0.756E-10  0.756E-10
  -0.421  0.123E-09  0.123E-09
  -0.406  0.200E-09  0.200E-09
  -0.391  0.322E-09  0.322E-09
  -0.376  0.516E-09  0.516E-09
  -0.361  0.821E-09  0.821E-09
  -0.346  0.130E-08  0.130E-08
  -0.331  0.204E-08  0.204E-08
  -0.316  0.320E-08  0.320E-08
  -0.301  0.497E-08  0.497E-08
  -0.286  0.768E-08  0.768E-08
  -0.271  0.118E-07  0.118E-07
  -0.256  0.180E-07  0.180E-07
  -0.241  0.273E-07  0.273E-07
  -0.226  0.412E-07  0.412E-07
  -0.211  0.618E-07  0.618E-07
  -0.196  0.920E-07  0.920E-07
  -0.181  0.136E-06  0.136E-06
  -0.166  0.201E-06  0.201E-06
  -0.151  0.294E-06  0.294E-06
  -0.136  0.428E-06  0.428E-06
  -0.121  0.618E-06  0.618E-06
  -0.106  0.889E-06  0.889E-06
  -0.091  0.127E-05  0.127E-05
  -0.076  0.180E-05  0.180E-05
  -0.061  0.255E-05  0.255E-05
  -0.046  0.358E-05  0.358E-05
  -0.031  0.499E-05  0.499E-05
  -0.016  0.692E-05  0.692E-05
  -0.001  0.955E-05  0.955E-05
   0.014  0.131E-04  0.131E-04
   0.029  0.178E-04  0.178E-04
   0.044  0.241E-04  0.241E-04
   0.059  0.325E-04  0.325E-04
   0.074  0.435E-04  0.435E-04
   0.089  0.579E-04  0.579E-04
   0.104  0.766E-04  0.766E-04
   0.119  0.101E-03  0.101E-03
   0.134  0.132E-03  0.132E-03
   0.149  0.171E-03  0.171E-03
   0.164  0.221E-03  0.221E-03
   0.179  0.284E-03  0.284E-03
   0.194  0.362E-03  0.362E-03
   0.209  0.459E-03  0.459E-03
   0.224  0.580E-03  0.580E-03
   0.239  0.727E-03  0.727E-03
   0.254  0.907E-03  0.907E-03
   0.269  0.112E-02  0.112E-02
   0.284  0.139E-02  0.139E-02
   0.299  0.170E-02  0.170E-02
   0.314  0.207E-02  0.207E-02
   0.329  0.251E-02  0.251E-02
   0.344  0.302E-02  0.302E-02
   0.359  0.361E-02  0.361E-02
   0.374  0.430E-02  0.430E-02
   0.389  0.509E-02  0.509E-02
   0.404  0.599E-02  0.599E-02
   0.419  0.701E-02  0.701E-02
   0.434  0.816E-02  0.816E-02
   0.449  0.944E-02  0.944E-02
   0.464  0.109E-01  0.109E-01
   0.479  0.124E-01  0.124E-01
   0.494  0.142E-01  0.142E-01
   0.509  0.160E-01  0.160E-01
   0.524  0.180E-01  0.180E-01
   0.539  0.202E-01  0.202E-01
   0.554  0.225E-01  0.225E-01
   0.569  0.249E-01  0.249E-01
   0.584  0.274E-01  0.274E-01
   0.599  0.300E-01  0.300E-01
   0.614  0.327E-01  0.327E-01
   0.629  0.355E-01  0.355E-01
   0.644  0.383E-01  0.383E-01
   0.659  0.411E-01  0.411E-01
   0.674  0.440E-01  0.440E-01
   0.689  0.467E-01  0.467E-01
   0.704  0.495E-01  0.495E-01
   0.719  0.521E-01  0.521E-01
   0.734  0.547E-01  0.547E-01
   0.749  0.571E-01  0.571E-01
   0.764  0.594E-01  0.594E-01
   0.779  0.615E-01  0.615E-01
   0.794  0.635E-01  0.635E-01
   0.809  0.653E-01  0.653E-01
   0.824  0.669E-01  0.669E-01
   0.839  0.683E-01  0.683E-01
   0.854  0.696E-01  0.696E-01
   0.869  0.707E-01  0.707E-01
   0.884  0.716E-01  0.716E-01
   0.899  0.723E-01  0.723E-01
   0.914  0.730E-01  0.730E-01
   0.929  0.735E-01  0.735E-01
   0.944  0.739E-01  0.739E-01
   0.959  0.743E-01  0.743E-01
   0.974  0.745E-01  0.745E-01
   0.989  0.748E-01  0.748E-01
   1.004  0.750E-01  0.750E-01
   1.019  0.752E-01  0.752E-01
   1.034  0.754E-01  0.754E-01
   1.049  0.756E-01  0.756E-01
   1.064  0.759E-01  0.759E-01
   1.079  0.761E-01  0.761E-01
   1.094  0.764E-01  0.764E-01
   1.109  0.767E-01  0.767E-01
   1.124  0.771E-01  0.771E-01
   1.139  0.775E-01  0.775E-01
   1.154  0.779E-01  0.779E-01
   1.169  0.783E-01  0.783E-01
   1.184  0.787E-01  0.787E-01
   1.199  0.791E-01  0.791E-01
   1.214  0.795E-01  0.795E-01
   1.229  0.799E-01  0.799E-01
   1.244  0.802E-01  0.802E-01
   1.259  0.806E-01  0.806E-01
   1.274  0.808E-01  0.808E-01
   1.289  0.811E-01  0.811E-01
   1.304  0.812E-01  0.812E-01
   1.319  0.814E-01  0.814E-01
   1.334  0.814E-01  0.814E-01
   1.349  0.815E-01  0.815E-01
   1.364  0.815E-01  0.815E-01
   1.379  0.815E-01  0.815E-01
   1.394  0.814E-01  0.814E-01
   1.409  0.814E-01  0.814E-01
   1.424  0.813E-01  0.813E-01
   1.439  0.812E-01  0.812E-01
   1.454  0.812E-01  0.812E-01
   1.469  0.811E-01  0.811E-01
   1.484  0.811E-01  0.811E-01
   1.499  0.811E-01  0.811E-01
   1.514  0.812E-01  0.812E-01
   1.529  0.813E-01  0.813E-01
   1.544  0.814E-01  0.814E-01
   1.559  0.816E-01  0.816E-01
   1.574  0.817E-01  0.817E-01
   1.589  0.820E-01  0.820E-01
   1.604  0.822E-01  0.822E-01
   1.619  0.825E-01  0.825E-01
   1.634  0.828E-01  0.828E-01
   1.649  0.831E-01  0.831E-01
   1.664  0.833E-01  0.833E-01
   1.679  0.836E-01  0.836E-01
   1.694  0.839E-01  0.839E-01
   1.709  0.842E-01  0.842E-01
   1.724  0.844E-01  0.844E-01
   1.739  0.846E-01  0.846E-01
   1.754  0.848E-01  0.848E-01
   1.769  0.850E-01  0.850E-01
   1.784  0.852E-01  0.852E-01
   1.799  0.854E-01  0.854E-01
   1.814  0.856E-01  0.856E-01
   1.829  0.857E-01  0.857E-01
   1.844  0.859E-01  0.859E-01
   1.859  0.861E-01  0.861E-01
   1.874  0.864E-01  0.864E-01
   1.889  0.867E-01  0.867E-01
   1.904  0.870E-01  0.870E-01
   1.919  0.874E-01  0.874E-01
   1.934  0.879E-01  0.879E-01
   1.949  0.884E-01  0.884E-01
   1.964  0.890E-01  0.890E-01
   1.979  0.896E-01  0.896E-01
   1.994  0.904E-01  0.904E-01
   2.009  0.911E-01  0.911E-01
   2.024  0.920E-01  0.920E-01
   2.039  0.928E-01  0.928E-01
   2.054  0.938E-01  0.938E-01
   2.069  0.947E-01  0.947E-01
   2.084  0.957E-01  0.957E-01
   2.099  0.967E-01  0.967E-01
   2.114  0.977E-01  0.977E-01
   2.129  0.987E-01  0.987E-01
   2.144  0.998E-01  0.998E-01
   2.159  0.101E+00  0.101E+00
   2.174  0.102E+00  0.102E+00
   2.189  0.103E+00  0.103E+00
   2.204  0.104E+00  0.104E+00
   2.219  0.105E+00  0.105E+00
   2.234  0.107E+00  0.107E+00
   2.249  0.108E+00  0.108E+00
   2.264  0.110E+00  0.110E+00
   2.279  0.112E+00  0.112E+00
   2.294  0.114E+00  0.114E+00
   2.309  0.116E+00  0.116E+00
   2.324  0.118E+00  0.118E+00
   2.339  0.121E+00  0.121E+00
   2.354  0.124E+00  0.124E+00
   2.369  0.127E+00  0.127E+00
   2.384  0.131E+00  0.131E+00
   2.399  0.135E+00  0.135E+00
   2.414  0.139E+00  0.139E+00
   2.429  0.144E+00  0.144E+00
   2.444  0.149E+00  0.149E+00
   2.459  0.154E+00  0.154E+00
   2.474  0.159E+00  0.159E+00
   2.489  0.165E+00  0.165E+00
   2.504  0.171E+00  0.171E+00
   2.519  0.178E+00  0.178E+00
   2.534  0.184E+00  0.184E+00
   2.549  0.190E+00  0.190E+00
   2.564  0.197E+00  0.197E+00
   2.579  0.203E+00  0.203E+00
   2.594  0.209E+00  0.209E+00
   2.609  0.215E+00  0.215E+00
   2.624  0.221E+00  0.221E+00
   2.639  0.226E+00  0.226E+00
   2.654  0.231E+00  0.231E+00
   2.669  0.236E+00  0.236E+00
   2.684  0.240E+00  0.240E+00
   2.699  0.243E+00  0.243E+00
   2.714  0.246E+00  0.246E+00
   2.729  0.248E+00  0.248E+00
   2.744  0.249E+00  0.249E+00
   2.759  0.250E+00  0.250E+00
   2.774  0.251E+00  0.251E+00
   2.789  0.250E+00  0.250E+00
   2.804  0.249E+00  0.249E+00
   2.819  0.248E+00  0.248E+00
   2.834  0.246E+00  0.246E+00
   2.849  0.244E+00  0.244E+00
   2.864  0.241E+00  0.241E+00
   2.879  0.238E+00  0.238E+00
   2.894  0.235E+00  0.235E+00
   2.909  0.232E+00  0.232E+00
   2.924  0.228E+00  0.228E+00
   2.939  0.225E+00  0.225E+00
   2.954  0.222E+00  0.222E+00
   2.969  0.219E+00  0.219E+00
   2.984  0.216E+00  0.216E+00
   2.999  0.213E+00  0.213E+00
   3.014  0.210E+00  0.210E+00
   3.029  0.208E+00  0.208E+00
   3.044  0.206E+00  0.206E+00
   3.059  0.204E+00  0.204E+00
   3.074  0.202E+00  0.202E+00
   3.089  0.201E+00  0.201E+00
   3.104  0.200E+00  0.200E+00
   3.119  0.199E+00  0.199E+00
   3.134  0.199E+00  0.199E+00
   3.149  0.199E+00  0.199E+00
   3.164  0.199E+00  0.199E+00
   3.179  0.200E+00  0.200E+00
   3.194  0.200E+00  0.200E+00
   3.209  0.201E+00  0.201E+00
   3.224  0.203E+00  0.203E+00
   3.239  0.204E+00  0.204E+00
   3.254  0.206E+00  0.206E+00
   3.269  0.208E+00  0.208E+00
   3.284  0.210E+00  0.210E+00
   3.299  0.213E+00  0.213E+00
   3.314  0.215E+00  0.215E+00
   3.329  0.219E+00  0.219E+00
   3.344  0.222E+00  0.222E+00
   3.359  0.226E+00  0.226E+00
   3.374  0.230E+00  0.230E+00
   3.389  0.234E+00  0.234E+00
   3.404  0.238E+00  0.238E+00
   3.419  0.243E+00  0.243E+00
   3.434  0.248E+00  0.248E+00
   3.449  0.253E+00  0.253E+00
   3.464  0.258E+00  0.258E+00
   3.479  0.263E+00  0.263E+00
   3.494  0.269E+00  0.269E+00
   3.509  0.274E+00  0.274E+00
   3.524  0.279E+00  0.279E+00
   3.539  0.284E+00  0.284E+00
   3.554  0.289E+00  0.289E+00
   3.569  0.294E+00  0.294E+00
   3.584  0.298E+00  0.298E+00
   3.599  0.302E+00  0.302E+00
   3.614  0.306E+00  0.306E+00
   3.629  0.309E+00  0.309E+00
   3.644  0.312E+00  0.312E+00
   3.659  0.314E+00  0.314E+00
   3.674  0.316E+00  0.316E+00
   3.689  0.318E+00  0.318E+00
   3.704  0.318E+00  0.318E+00
   3.719  0.319E+00  0.319E+00
   3.734  0.318E+00  0.318E+00
   3.749  0.318E+00  0.318E+00
   3.764  0.316E+00  0.316E+00
   3.779  0.315E+00  0.315E+00
   3.794  0.312E+00  0.312E+00
   3.809  0.309E+00  0.309E+00
   3.824  0.306E+00  0.306E+00
   3.839  0.302E+00  0.302E+00
   3.854  0.298E+00  0.298E+00
   3.869  0.294E+00  0.294E+00
   3.884  0.289E+00  0.289E+00
   3.899  0.284E+00  0.284E+00
   3.914  0.279E+00  0.279E+00
   3.929  0.273E+00  0.273E+00
   3.944  0.267E+00  0.267E+00
   3.959  0.261E+00  0.261E+00
   3.974  0.255E+00  0.255E+00
   3.989  0.249E+00  0.249E+00
   4.004  0.243E+00  0.243E+00
   4.019  0.237E+00  0.237E+00
   4.034  0.232E+00  0.232E+00
   4.049  0.226E+00  0.226E+00
   4.064  0.220E+00  0.220E+00
   4.079  0.215E+00  0.215E+00
   4.094  0.209E+00  0.209E+00
   4.109  0.204E+00  0.204E+00
   4.124  0.199E+00  0.199E+00
   4.139  0.195E+00  0.195E+00
   4.154  0.190E+00  0.190E+00
   4.169  0.186E+00  0.186E+00
   4.184  0.182E+00  0.182E+00
   4.199  0.178E+00  0.178E+00
   4.214  0.175E+00  0.175E+00
   4.229  0.172E+00  0.172E+00
   4.244  0.169E+00  0.169E+00
   4.259  0.166E+00  0.166E+00
   4.274  0.163E+00  0.163E+00
   4.289  0.161E+00  0.161E+00
   4.304  0.159E+00  0.159E+00
   4.319  0.157E+00  0.157E+00
   4.334  0.155E+00  0.155E+00
   4.349  0.154E+00  0.154E+00
   4.364  0.152E+00  0.152E+00
   4.379  0.151E+00  0.151E+00
   4.394  0.150E+00  0.150E+00
   4.409  0.149E+00  0.149E+00
   4.424  0.148E+00  0.148E+00
   4.439  0.147E+00  0.147E+00
   4.454  0.147E+00  0.147E+00
   4.469  0.146E+00  0.146E+00
   4.484  0.146E+00  0.146E+00
   4.499  0.146E+00  0.146E+00
   4.514  0.146E+00  0.146E+00
   4.529  0.147E+00  0.147E+00
   4.544  0.147E+00  0.147E+00
   4.559  0.147E+00  0.147E+00
   4.574  0.148E+00  0.148E+00
   4.589  0.149E+00  0.149E+00
   4.604  0.150E+00  0.150E+00
   4.619  0.151E+00  0.151E+00
   4.634  0.152E+00  0.152E+00
   4.649  0.153E+00  0.153E+00
   4.664  0.155E+00  0.155E+00
   4.679  0.156E+00  0.156E+00
   4.694  0.157E+00  0.157E+00
   4.709  0.159E+00  0.159E+00
   4.724  0.160E+00  0.160E+00
   4.739  0.161E+00  0.161E+00
   4.754  0.163E+00  0.163E+00
   4.769  0.164E+00  0.164E+00
   4.784  0.165E+00  0.165E+00
   4.799  0.166E+00  0.166E+00
   4.814  0.167E+00  0.167E+00
   4.829  0.168E+00  0.168E+00
   4.844  0.169E+00  0.169E+00
   4.859  0.169E+00  0.169E+00
   4.874  0.170E+00  0.170E+00
   4.889  0.170E+00  0.170E+00
   4.904  0.170E+00  0.170E+00
   4.919  0.171E+00  0.171E+00
   4.934  0.171E+00  0.171E+00
   4.949  0.171E+00  0.171E+00
   4.964  0.170E+00  0.170E+00
   4.979  0.170E+00  0.170E+00
   4.994  0.170E+00  0.170E+00
   5.009  0.169E+00  0.169E+00
   5.024  0.169E+00  0.169E+00
   5.039  0.168E+00  0.168E+00
   5.054  0.167E+00  0.167E+00
   5.069  0.166E+00  0.166E+00
   5.084  0.166E+00  0.166E+00
   5.099  0.165E+00  0.165E+00
   5.114  0.163E+00  0.163E+00
   5.129  0.162E+00  0.162E+00
   5.144  0.161E+00  0.161E+00
   5.159  0.160E+00  0.160E+00
   5.174  0.158E+00  0.158E+00
   5.189  0.157E+00  0.157E+00
   5.204  0.155E+00  0.155E+00
   5.219  0.153E+00  0.153E+00
   5.234  0.151E+00  0.151E+00
   5.249  0.150E+00  0.150E+00
   5.264  0.148E+00  0.148E+00
   5.279  0.146E+00  0.146E+00
   5.294  0.144E+00  0.144E+00
   5.309  0.141E+00  0.141E+00
   5.324  0.139E+00  0.139E+00
   5.339  0.137E+00  0.137E+00
   5.354  0.135E+00  0.135E+00
   5.369  0.133E+00  0.133E+00
   5.384  0.131E+00  0.131E+00
   5.399  0.129E+00  0.129E+00
   5.414  0.127E+00  0.127E+00
   5.429  0.125E+00  0.125E+00
   5.444  0.123E+00  0.123E+00
   5.459  0.121E+00  0.121E+00
   5.474  0.120E+00  0.120E+00
   5.489  0.118E+00  0.118E+00
   5.504  0.117E+00  0.117E+00
   5.519  0.116E+00  0.116E+00
   5.534  0.115E+00  0.115E+00
   5.549  0.114E+00  0.114E+00
   5.564  0.113E+00  0.113E+00
   5.579  0.112E+00  0.112E+00
   5.594  0.112E+00  0.112E+00
   5.609  0.112E+00  0.112E+00
   5.624  0.111E+00  0.111E+00
   5.639  0.111E+00  0.111E+00
   5.654  0.112E+00  0.112E+00
   5.669  0.112E+00  0.112E+00
   5.684  0.112E+00  0.112E+00
   5.699  0.113E+00  0.113E+00
   5.714  0.114E+00  0.114E+00
   5.729  0.115E+00  0.115E+00
   5.744  0.116E+00  0.116E+00
   5.759  0.117E+00  0.117E+00
   5.774  0.118E+00  0.118E+00
   5.789  0.119E+00  0.119E+00
   5.804  0.121E+00  0.121E+00
   5.819  0.122E+00  0.122E+00
   5.834  0.124E+00  0.124E+00
   5.849  0.125E+00  0.125E+00
   5.864  0.127E+00  0.127E+00
   5.879  0.129E+00  0.129E+00
   5.894  0.131E+00  0.131E+00
   5.909  0.132E+00  0.132E+00
   5.924  0.134E+00  0.134E+00
   5.939  0.136E+00  0.136E+00
   5.954  0.137E+00  0.137E+00
   5.969  0.139E+00  0.139E+00
   5.984  0.140E+00  0.140E+00
   5.999  0.141E+00  0.141E+00
   6.014  0.143E+00  0.143E+00
   6.029  0.144E+00  0.144E+00
   6.044  0.145E+00  0.145E+00
   6.059  0.146E+00  0.146E+00
   6.074  0.146E+00  0.146E+00
   6.089  0.147E+00  0.147E+00
   6.104  0.147E+00  0.147E+00
   6.119  0.147E+00  0.147E+00
   6.134  0.147E+00  0.147E+00
   6.149  0.147E+00  0.147E+00
   6.164  0.147E+00  0.147E+00
   6.179  0.146E+00  0.146E+00
   6.194  0.145E+00  0.145E+00
   6.209  0.145E+00  0.145E+00
   6.224  0.144E+00  0.144E+00
   6.239  0.142E+00  0.142E+00
   6.254  0.141E+00  0.141E+00
   6.269  0.140E+00  0.140E+00
   6.284  0.138E+00  0.138E+00
   6.299  0.137E+00  0.137E+00
   6.314  0.135E+00  0.135E+00
   6.329  0.133E+00  0.133E+00
   6.344  0.132E+00  0.132E+00
   6.359  0.130E+00  0.130E+00
   6.374  0.128E+00  0.128E+00
   6.389  0.127E+00  0.127E+00
   6.404  0.125E+00  0.125E+00
   6.419  0.124E+00  0.124E+00
   6.434  0.123E+00  0.123E+00
   6.449  0.122E+00  0.122E+00
   6.464  0.121E+00  0.121E+00
   6.479  0.120E+00  0.120E+00
   6.494  0.119E+00  0.119E+00
   6.509  0.119E+00  0.119E+00
   6.524  0.118E+00  0.118E+00
   6.539  0.118E+00  0.118E+00
   6.554  0.118E+00  0.118E+00
   6.569  0.117E+00  0.117E+00
   6.584  0.117E+00  0.117E+00
   6.599  0.118E+00  0.118E+00
   6.614  0.118E+00  0.118E+00
   6.629  0.118E+00  0.118E+00
   6.644  0.118E+00  0.118E+00
   6.659  0.119E+00  0.119E+00
   6.674  0.119E+00  0.119E+00
   6.689  0.119E+00  0.119E+00
   6.704  0.120E+00  0.120E+00
   6.719  0.120E+00  0.120E+00
   6.734  0.120E+00  0.120E+00
   6.749  0.120E+00  0.120E+00
   6.764  0.120E+00  0.120E+00
   6.779  0.120E+00  0.120E+00
   6.794  0.120E+00  0.120E+00
   6.809  0.120E+00  0.120E+00
   6.824  0.120E+00  0.120E+00
   6.839  0.120E+00  0.120E+00
   6.854  0.119E+00  0.119E+00
   6.869  0.119E+00  0.119E+00
   6.884  0.118E+00  0.118E+00
   6.899  0.117E+00  0.117E+00
   6.914  0.117E+00  0.117E+00
   6.929  0.116E+00  0.116E+00
   6.944  0.115E+00  0.115E+00
   6.959  0.114E+00  0.114E+00
   6.974  0.113E+00  0.113E+00
   6.989  0.112E+00  0.112E+00
   7.004  0.111E+00  0.111E+00
   7.019  0.110E+00  0.110E+00
   7.034  0.109E+00  0.109E+00
   7.049  0.108E+00  0.108E+00
   7.064  0.107E+00  0.107E+00
   7.079  0.106E+00  0.106E+00
   7.094  0.104E+00  0.104E+00
   7.109  0.103E+00  0.103E+00
   7.124  0.102E+00  0.102E+00
   7.139  0.101E+00  0.101E+00
   7.154  0.998E-01  0.998E-01
   7.169  0.987E-01  0.987E-01
   7.184  0.975E-01  0.975E-01
   7.199  0.964E-01  0.964E-01
   7.214  0.953E-01  0.953E-01
   7.229  0.942E-01  0.942E-01
   7.244  0.932E-01  0.932E-01
   7.259  0.921E-01  0.921E-01
   7.274  0.911E-01  0.911E-01
   7.289  0.902E-01  0.902E-01
   7.304  0.893E-01  0.893E-01
   7.319  0.884E-01  0.884E-01
   7.334  0.876E-01  0.876E-01
   7.349  0.868E-01  0.868E-01
   7.364  0.861E-01  0.861E-01
   7.379  0.854E-01  0.854E-01
   7.394  0.848E-01  0.848E-01
   7.409  0.842E-01  0.842E-01
   7.424  0.837E-01  0.837E-01
   7.439  0.832E-01  0.832E-01
   7.454  0.828E-01  0.828E-01
   7.469  0.824E-01  0.824E-01
   7.484  0.820E-01  0.820E-01
   7.499  0.817E-01  0.817E-01
   7.514  0.814E-01  0.814E-01
   7.529  0.811E-01  0.811E-01
   7.544  0.808E-01  0.808E-01
   7.559  0.806E-01  0.806E-01
   7.574  0.803E-01  0.803E-01
   7.589  0.801E-01  0.801E-01
   7.604  0.798E-01  0.798E-01
   7.619  0.795E-01  0.795E-01
   7.634  0.793E-01  0.793E-01
   7.649  0.790E-01  0.790E-01
   7.664  0.787E-01  0.787E-01
   7.679  0.784E-01  0.784E-01
   7.694  0.781E-01  0.781E-01
   7.709  0.777E-01  0.777E-01
   7.724  0.774E-01  0.774E-01
   7.739  0.770E-01  0.770E-01
   7.754  0.767E-01  0.767E-01
   7.769  0.763E-01  0.763E-01
   7.784  0.759E-01  0.759E-01
   7.799  0.755E-01  0.755E-01
   7.814  0.751E-01  0.751E-01
   7.829  0.747E-01  0.747E-01
   7.844  0.743E-01  0.743E-01
   7.859  0.738E-01  0.738E-01
   7.874  0.734E-01  0.734E-01
   7.889  0.730E-01  0.730E-01
   7.904  0.726E-01  0.726E-01
   7.919  0.722E-01  0.722E-01
   7.934  0.718E-01  0.718E-01
   7.949  0.715E-01  0.715E-01
   7.964  0.711E-01  0.711E-01
   7.979  0.707E-01  0.707E-01
   7.994  0.704E-01  0.704E-01
   8.009  0.700E-01  0.700E-01
   8.024  0.697E-01  0.697E-01
   8.039  0.694E-01  0.694E-01
   8.054  0.691E-01  0.691E-01
   8.069  0.689E-01  0.689E-01
   8.084  0.686E-01  0.686E-01
   8.099  0.684E-01  0.684E-01
   8.114  0.682E-01  0.682E-01
   8.129  0.680E-01  0.680E-01
   8.144  0.678E-01  0.678E-01
   8.159  0.677E-01  0.677E-01
   8.174  0.676E-01  0.676E-01
   8.189  0.675E-01  0.675E-01
   8.204  0.674E-01  0.674E-01
   8.219  0.673E-01  0.673E-01
   8.234  0.673E-01  0.673E-01
   8.249  0.673E-01  0.673E-01
   8.264  0.673E-01  0.673E-01
   8.279  0.673E-01  0.673E-01
   8.294  0.673E-01  0.673E-01
   8.309  0.673E-01  0.673E-01
   8.324  0.674E-01  0.674E-01
   8.339  0.674E-01  0.674E-01
   8.354  0.674E-01  0.674E-01
   8.369  0.674E-01  0.674E-01
   8.384  0.674E-01  0.674E-01
   8.399  0.674E-01  0.674E-01
   8.414  0.673E-01  0.673E-01
   8.429  0.673E-01  0.673E-01
   8.444  0.672E-01  0.672E-01
   8.459  0.670E-01  0.670E-01
   8.474  0.669E-01  0.669E-01
   8.489  0.667E-01  0.667E-01
   8.504  0.664E-01  0.664E-01
   8.519  0.661E-01  0.661E-01
   8.534  0.658E-01  0.658E-01
   8.549  0.655E-01  0.655E-01
   8.564  0.651E-01  0.651E-01
   8.579  0.648E-01  0.648E-01
   8.594  0.643E-01  0.643E-01
   8.609  0.639E-01  0.639E-01
   8.624  0.635E-01  0.635E-01
   8.639  0.630E-01  0.630E-01
   8.654  0.626E-01  0.626E-01
   8.669  0.622E-01  0.622E-01
   8.684  0.617E-01  0.617E-01
   8.699  0.613E-01  0.613E-01
   8.714  0.609E-01  0.609E-01
   8.729  0.606E-01  0.606E-01
   8.744  0.603E-01  0.603E-01
   8.759  0.600E-01  0.600E-01
   8.774  0.598E-01  0.598E-01
   8.789  0.596E-01  0.596E-01
   8.804  0.594E-01  0.594E-01
   8.819  0.593E-01  0.593E-01
   8.834  0.592E-01  0.592E-01
   8.849  0.592E-01  0.592E-01
   8.864  0.592E-01  0.592E-01
   8.879  0.593E-01  0.593E-01
   8.894  0.594E-01  0.594E-01
   8.909  0.596E-01  0.596E-01
   8.924  0.597E-01  0.597E-01
   8.939  0.599E-01  0.599E-01
   8.954  0.601E-01  0.601E-01
   8.969  0.603E-01  0.603E-01
   8.984  0.605E-01  0.605E-01
   8.999  0.607E-01  0.607E-01
   9.014  0.609E-01  0.609E-01
   9.029  0.611E-01  0.611E-01
   9.044  0.612E-01  0.612E-01
   9.059  0.613E-01  0.613E-01
   9.074  0.613E-01  0.613E-01
   9.089  0.613E-01  0.613E-01
   9.104  0.612E-01  0.612E-01
   9.119  0.611E-01  0.611E-01
   9.134  0.608E-01  0.608E-01
   9.149  0.605E-01  0.605E-01
   9.164  0.601E-01  0.601E-01
   9.179  0.596E-01  0.596E-01
   9.194  0.590E-01  0.590E-01
   9.209  0.583E-01  0.583E-01
   9.224  0.575E-01  0.575E-01
   9.239  0.565E-01  0.565E-01
   9.254  0.555E-01  0.555E-01
   9.269  0.543E-01  0.543E-01
   9.284  0.531E-01  0.531E-01
   9.299  0.517E-01  0.517E-01
   9.314  0.503E-01  0.503E-01
   9.329  0.488E-01  0.488E-01
   9.344  0.471E-01  0.471E-01
   9.359  0.455E-01  0.455E-01
   9.374  0.437E-01  0.437E-01
   9.389  0.419E-01  0.419E-01
   9.404  0.401E-01  0.401E-01
   9.419  0.382E-01  0.382E-01
   9.434  0.363E-01  0.363E-01
   9.449  0.344E-01  0.344E-01
   9.464  0.324E-01  0.324E-01
   9.479  0.305E-01  0.305E-01
   9.494  0.286E-01  0.286E-01
   9.509  0.268E-01  0.268E-01
   9.524  0.250E-01  0.250E-01
   9.539  0.232E-01  0.232E-01
   9.554  0.215E-01  0.215E-01
   9.569  0.198E-01  0.198E-01
   9.584  0.182E-01  0.182E-01
   9.599  0.167E-01  0.167E-01
   9.614  0.152E-01  0.152E-01
   9.629  0.139E-01  0.139E-01
   9.644  0.126E-01  0.126E-01
   9.659  0.113E-01  0.113E-01
   9.674  0.102E-01  0.102E-01
   9.689  0.915E-02  0.915E-02
   9.704  0.817E-02  0.817E-02
   9.719  0.727E-02  0.727E-02
   9.734  0.644E-02  0.644E-02
   9.749  0.569E-02  0.569E-02
   9.764  0.500E-02  0.500E-02
   9.779  0.438E-02  0.438E-02
   9.794  0.382E-02  0.382E-02
   9.809  0.331E-02  0.331E-02
   9.824  0.287E-02  0.287E-02
   9.839  0.247E-02  0.247E-02
   9.854  0.212E-02  0.212E-02
   9.869  0.181E-02  0.181E-02
   9.884  0.153E-02  0.153E-02
   9.899  0.130E-02  0.130E-02
   9.914  0.109E-02  0.109E-02
   9.929  0.917E-03  0.917E-03
   9.944  0.765E-03  0.765E-03
   9.959  0.635E-03  0.635E-03
   9.974  0.525E-03  0.525E-03
   9.989  0.432E-03  0.432E-03
  10.004  0.354E-03  0.354E-03
  10.019  0.288E-03  0.288E-03
  10.034  0.234E-03  0.234E-03
  10.049  0.189E-03  0.189E-03
  10.064  0.152E-03  0.152E-03
  10.079  0.121E-03  0.121E-03
  10.094  0.962E-04  0.962E-04
  10.109  0.761E-04  0.761E-04
  10.124  0.599E-04  0.599E-04
  10.139  0.469E-04  0.469E-04
  10.154  0.365E-04  0.365E-04
  10.169  0.283E-04  0.283E-04
  10.184  0.218E-04  0.218E-04
  10.199  0.167E-04  0.167E-04
  10.214  0.127E-04  0.127E-04
  10.229  0.967E-05  0.967E-05
  10.244  0.730E-05  0.730E-05
  10.259  0.548E-05  0.548E-05
  10.274  0.409E-05  0.409E-05
  10.289  0.304E-05  0.304E-05
  10.304  0.224E-05  0.224E-05
  10.319  0.165E-05  0.165E-05
  10.334  0.120E-05  0.120E-05
  10.349  0.874E-06  0.874E-06
  10.364  0.632E-06  0.632E-06
  10.379  0.454E-06  0.454E-06
  10.394  0.324E-06  0.324E-06
  10.409  0.231E-06  0.231E-06
  10.424  0.163E-06  0.163E-06
  10.439  0.115E-06  0.115E-06
  10.454  0.801E-07  0.801E-07
