# E (eV)   ldos(E)   pdos(E)   
 -27.811  0.640E-04  0.640E-04
 -27.796  0.888E-04  0.888E-04
 -27.781  0.122E-03  0.122E-03
 -27.766  0.168E-03  0.168E-03
 -27.751  0.229E-03  0.229E-03
 -27.736  0.310E-03  0.310E-03
 -27.721  0.417E-03  0.417E-03
 -27.706  0.558E-03  0.558E-03
 -27.691  0.743E-03  0.743E-03
 -27.676  0.982E-03  0.982E-03
 -27.661  0.129E-02  0.129E-02
 -27.646  0.168E-02  0.168E-02
 -27.631  0.219E-02  0.219E-02
 -27.616  0.282E-02  0.282E-02
 -27.601  0.362E-02  0.362E-02
 -27.586  0.461E-02  0.461E-02
 -27.571  0.584E-02  0.584E-02
 -27.556  0.736E-02  0.736E-02
 -27.541  0.921E-02  0.921E-02
 -27.526  0.115E-01  0.115E-01
 -27.511  0.142E-01  0.142E-01
 -27.496  0.174E-01  0.174E-01
 -27.481  0.213E-01  0.213E-01
 -27.466  0.258E-01  0.258E-01
 -27.451  0.311E-01  0.311E-01
 -27.436  0.374E-01  0.374E-01
 -27.421  0.445E-01  0.445E-01
 -27.406  0.528E-01  0.528E-01
 -27.391  0.622E-01  0.622E-01
 -27.376  0.728E-01  0.728E-01
 -27.361  0.847E-01  0.847E-01
 -27.346  0.979E-01  0.979E-01
 -27.331  0.113E+00  0.113E+00
 -27.316  0.129E+00  0.129E+00
 -27.301  0.146E+00  0.146E+00
 -27.286  0.165E+00  0.165E+00
 -27.271  0.185E+00  0.185E+00
 -27.256  0.206E+00  0.206E+00
 -27.241  0.229E+00  0.229E+00
 -27.226  0.252E+00  0.252E+00
 -27.211  0.276E+00  0.276E+00
 -27.196  0.300E+00  0.300E+00
 -27.181  0.324E+00  0.324E+00
 -27.166  0.349E+00  0.349E+00
 -27.151  0.373E+00  0.373E+00
 -27.136  0.396E+00  0.396E+00
 -27.121  0.418E+00  0.418E+00
 -27.106  0.439E+00  0.439E+00
 -27.091  0.458E+00  0.458E+00
 -27.076  0.474E+00  0.474E+00
 -27.061  0.489E+00  0.489E+00
 -27.046  0.500E+00  0.500E+00
 -27.031  0.509E+00  0.509E+00
 -27.016  0.515E+00  0.515E+00
 -27.001  0.518E+00  0.518E+00
 -26.986  0.518E+00  0.518E+00
 -26.971  0.515E+00  0.515E+00
 -26.956  0.508E+00  0.508E+00
 -26.941  0.499E+00  0.499E+00
 -26.926  0.487E+00  0.487E+00
 -26.911  0.472E+00  0.472E+00
 -26.896  0.455E+00  0.455E+00
 -26.881  0.436E+00  0.436E+00
 -26.866  0.415E+00  0.415E+00
 -26.851  0.392E+00  0.392E+00
 -26.836  0.369E+00  0.369E+00
 -26.821  0.345E+00  0.345E+00
 -26.806  0.321E+00  0.321E+00
 -26.791  0.296E+00  0.296E+00
 -26.776  0.272E+00  0.272E+00
 -26.761  0.248E+00  0.248E+00
 -26.746  0.225E+00  0.225E+00
 -26.731  0.203E+00  0.203E+00
 -26.716  0.182E+00  0.182E+00
 -26.701  0.162E+00  0.162E+00
 -26.686  0.143E+00  0.143E+00
 -26.671  0.126E+00  0.126E+00
 -26.656  0.110E+00  0.110E+00
 -26.641  0.958E-01  0.958E-01
 -26.626  0.828E-01  0.828E-01
 -26.611  0.711E-01  0.711E-01
 -26.596  0.606E-01  0.606E-01
 -26.581  0.514E-01  0.514E-01
 -26.566  0.434E-01  0.434E-01
 -26.551  0.363E-01  0.363E-01
 -26.536  0.303E-01  0.303E-01
 -26.521  0.251E-01  0.251E-01
 -26.506  0.206E-01  0.206E-01
 -26.491  0.169E-01  0.169E-01
 -26.476  0.137E-01  0.137E-01
 -26.461  0.111E-01  0.111E-01
 -26.446  0.890E-02  0.890E-02
 -26.431  0.710E-02  0.710E-02
 -26.416  0.564E-02  0.564E-02
 -26.401  0.444E-02  0.444E-02
 -26.386  0.348E-02  0.348E-02
 -26.371  0.271E-02  0.271E-02
 -26.356  0.210E-02  0.210E-02
 -26.341  0.162E-02  0.162E-02
 -26.326  0.124E-02  0.124E-02
 -26.311  0.941E-03  0.941E-03
 -26.296  0.711E-03  0.711E-03
 -26.281  0.534E-03  0.534E-03
 -26.266  0.399E-03  0.399E-03
 -26.251  0.296E-03  0.296E-03
 -26.236  0.218E-03  0.218E-03
 -26.221  0.160E-03  0.160E-03
 -26.206  0.117E-03  0.117E-03
 -26.191  0.845E-04  0.845E-04
 -26.176  0.608E-04  0.608E-04
 -26.161  0.435E-04  0.435E-04
 -26.146  0.310E-04  0.310E-04
 -26.131  0.219E-04  0.219E-04
 -26.116  0.154E-04  0.154E-04
 -26.101  0.107E-04  0.107E-04
 -26.086  0.745E-05  0.745E-05
 -26.071  0.514E-05  0.514E-05
 -26.056  0.353E-05  0.353E-05
 -26.041  0.240E-05  0.240E-05
 -26.026  0.163E-05  0.163E-05
 -26.011  0.110E-05  0.110E-05
 -25.996  0.734E-06  0.734E-06
 -25.981  0.488E-06  0.488E-06
 -25.966  0.323E-06  0.323E-06
 -25.951  0.212E-06  0.212E-06
 -25.936  0.139E-06  0.139E-06
 -25.921  0.899E-07  0.899E-07
 -25.906  0.580E-07  0.580E-07
 -25.891  0.372E-07  0.372E-07
 -25.876  0.237E-07  0.237E-07
 -25.861  0.150E-07  0.150E-07
 -25.846  0.947E-08  0.947E-08
 -25.831  0.593E-08  0.593E-08
 -25.816  0.369E-08  0.369E-08
 -25.801  0.228E-08  0.228E-08
 -25.786  0.140E-08  0.140E-08
 -25.771  0.857E-09  0.857E-09
 -25.756  0.520E-09  0.520E-09
 -25.741  0.314E-09  0.314E-09
 -25.726  0.188E-09  0.188E-09
 -25.711  0.112E-09  0.112E-09
 -25.696  0.666E-10  0.666E-10
 -25.681  0.392E-10  0.392E-10
 -25.666  0.230E-10  0.230E-10
 -25.651  0.134E-10  0.134E-10
 -25.636  0.773E-11  0.773E-11
 -25.621  0.000E+00  0.000E+00
 -25.606  0.000E+00  0.000E+00
 -25.591  0.000E+00  0.000E+00
 -25.576  0.000E+00  0.000E+00
 -25.561  0.000E+00  0.000E+00
 -25.546  0.000E+00  0.000E+00
 -25.531  0.000E+00  0.000E+00
 -25.516  0.000E+00  0.000E+00
 -25.501  0.000E+00  0.000E+00
 -25.486  0.000E+00  0.000E+00
 -25.471  0.000E+00  0.000E+00
 -25.456  0.000E+00  0.000E+00
 -25.441  0.000E+00  0.000E+00
 -25.426  0.000E+00  0.000E+00
 -25.411  0.000E+00  0.000E+00
 -25.396  0.000E+00  0.000E+00
 -25.381  0.000E+00  0.000E+00
 -25.366  0.000E+00  0.000E+00
 -25.351  0.000E+00  0.000E+00
 -25.336  0.000E+00  0.000E+00
 -25.321  0.000E+00  0.000E+00
 -25.306  0.000E+00  0.000E+00
 -25.291  0.000E+00  0.000E+00
 -25.276  0.000E+00  0.000E+00
 -25.261  0.000E+00  0.000E+00
 -25.246  0.187E-12  0.187E-12
 -25.231  0.401E-12  0.401E-12
 -25.216  0.747E-12  0.747E-12
 -25.201  0.140E-11  0.140E-11
 -25.186  0.254E-11  0.254E-11
 -25.171  0.453E-11  0.453E-11
 -25.156  0.783E-11  0.783E-11
 -25.141  0.132E-10  0.132E-10
 -25.126  0.221E-10  0.221E-10
 -25.111  0.368E-10  0.368E-10
 -25.096  0.607E-10  0.607E-10
 -25.081  0.998E-10  0.998E-10
 -25.066  0.164E-09  0.164E-09
 -25.051  0.266E-09  0.266E-09
 -25.036  0.430E-09  0.430E-09
 -25.021  0.689E-09  0.689E-09
 -25.006  0.110E-08  0.110E-08
 -24.991  0.174E-08  0.174E-08
 -24.976  0.275E-08  0.275E-08
 -24.961  0.431E-08  0.431E-08
 -24.946  0.671E-08  0.671E-08
 -24.931  0.104E-07  0.104E-07
 -24.916  0.160E-07  0.160E-07
 -24.901  0.245E-07  0.245E-07
 -24.886  0.373E-07  0.373E-07
 -24.871  0.564E-07  0.564E-07
 -24.856  0.849E-07  0.849E-07
 -24.841  0.127E-06  0.127E-06
 -24.826  0.189E-06  0.189E-06
 -24.811  0.279E-06  0.279E-06
 -24.796  0.410E-06  0.410E-06
 -24.781  0.599E-06  0.599E-06
 -24.766  0.869E-06  0.869E-06
 -24.751  0.126E-05  0.126E-05
 -24.736  0.180E-05  0.180E-05
 -24.721  0.257E-05  0.257E-05
 -24.706  0.365E-05  0.365E-05
 -24.691  0.515E-05  0.515E-05
 -24.676  0.722E-05  0.722E-05
 -24.661  0.101E-04  0.101E-04
 -24.646  0.140E-04  0.140E-04
 -24.631  0.193E-04  0.193E-04
 -24.616  0.264E-04  0.264E-04
 -24.601  0.360E-04  0.360E-04
 -24.586  0.488E-04  0.488E-04
 -24.571  0.658E-04  0.658E-04
 -24.556  0.881E-04  0.881E-04
 -24.541  0.117E-03  0.117E-03
 -24.526  0.156E-03  0.156E-03
 -24.511  0.205E-03  0.205E-03
 -24.496  0.269E-03  0.269E-03
 -24.481  0.350E-03  0.350E-03
 -24.466  0.453E-03  0.453E-03
 -24.451  0.584E-03  0.584E-03
 -24.436  0.749E-03  0.749E-03
 -24.421  0.954E-03  0.954E-03
 -24.406  0.121E-02  0.121E-02
 -24.391  0.152E-02  0.152E-02
 -24.376  0.191E-02  0.191E-02
 -24.361  0.238E-02  0.238E-02
 -24.346  0.295E-02  0.295E-02
 -24.331  0.364E-02  0.364E-02
 -24.316  0.446E-02  0.446E-02
 -24.301  0.544E-02  0.544E-02
 -24.286  0.660E-02  0.660E-02
 -24.271  0.797E-02  0.797E-02
 -24.256  0.956E-02  0.956E-02
 -24.241  0.114E-01  0.114E-01
 -24.226  0.136E-01  0.136E-01
 -24.211  0.160E-01  0.160E-01
 -24.196  0.188E-01  0.188E-01
 -24.181  0.220E-01  0.220E-01
 -24.166  0.256E-01  0.256E-01
 -24.151  0.296E-01  0.296E-01
 -24.136  0.341E-01  0.341E-01
 -24.121  0.391E-01  0.391E-01
 -24.106  0.445E-01  0.445E-01
 -24.091  0.505E-01  0.505E-01
 -24.076  0.569E-01  0.569E-01
 -24.061  0.639E-01  0.639E-01
 -24.046  0.713E-01  0.713E-01
 -24.031  0.792E-01  0.792E-01
 -24.016  0.876E-01  0.876E-01
 -24.001  0.963E-01  0.963E-01
 -23.986  0.105E+00  0.105E+00
 -23.971  0.115E+00  0.115E+00
 -23.956  0.124E+00  0.124E+00
 -23.941  0.134E+00  0.134E+00
 -23.926  0.144E+00  0.144E+00
 -23.911  0.154E+00  0.154E+00
 -23.896  0.163E+00  0.163E+00
 -23.881  0.172E+00  0.172E+00
 -23.866  0.181E+00  0.181E+00
 -23.851  0.190E+00  0.190E+00
 -23.836  0.198E+00  0.198E+00
 -23.821  0.205E+00  0.205E+00
 -23.806  0.212E+00  0.212E+00
 -23.791  0.217E+00  0.217E+00
 -23.776  0.222E+00  0.222E+00
 -23.761  0.226E+00  0.226E+00
 -23.746  0.229E+00  0.229E+00
 -23.731  0.231E+00  0.231E+00
 -23.716  0.233E+00  0.233E+00
 -23.701  0.233E+00  0.233E+00
 -23.686  0.233E+00  0.233E+00
 -23.671  0.232E+00  0.232E+00
 -23.656  0.231E+00  0.231E+00
 -23.641  0.229E+00  0.229E+00
 -23.626  0.227E+00  0.227E+00
 -23.611  0.226E+00  0.226E+00
 -23.596  0.224E+00  0.224E+00
 -23.581  0.224E+00  0.224E+00
 -23.566  0.225E+00  0.225E+00
 -23.551  0.226E+00  0.226E+00
 -23.536  0.230E+00  0.230E+00
 -23.521  0.236E+00  0.236E+00
 -23.506  0.244E+00  0.244E+00
 -23.491  0.255E+00  0.255E+00
 -23.476  0.270E+00  0.270E+00
 -23.461  0.287E+00  0.287E+00
 -23.446  0.309E+00  0.309E+00
 -23.431  0.335E+00  0.335E+00
 -23.416  0.365E+00  0.365E+00
 -23.401  0.401E+00  0.401E+00
 -23.386  0.440E+00  0.440E+00
 -23.371  0.485E+00  0.485E+00
 -23.356  0.534E+00  0.534E+00
 -23.341  0.588E+00  0.588E+00
 -23.326  0.646E+00  0.646E+00
 -23.311  0.709E+00  0.709E+00
 -23.296  0.775E+00  0.775E+00
 -23.281  0.844E+00  0.844E+00
 -23.266  0.915E+00  0.915E+00
 -23.251  0.988E+00  0.988E+00
 -23.236  0.106E+01  0.106E+01
 -23.221  0.113E+01  0.113E+01
 -23.206  0.121E+01  0.121E+01
 -23.191  0.128E+01  0.128E+01
 -23.176  0.134E+01  0.134E+01
 -23.161  0.141E+01  0.141E+01
 -23.146  0.146E+01  0.146E+01
 -23.131  0.152E+01  0.152E+01
 -23.116  0.156E+01  0.156E+01
 -23.101  0.160E+01  0.160E+01
 -23.086  0.163E+01  0.163E+01
 -23.071  0.164E+01  0.164E+01
 -23.056  0.166E+01  0.166E+01
 -23.041  0.166E+01  0.166E+01
 -23.026  0.165E+01  0.165E+01
 -23.011  0.163E+01  0.163E+01
 -22.996  0.161E+01  0.161E+01
 -22.981  0.157E+01  0.157E+01
 -22.966  0.153E+01  0.153E+01
 -22.951  0.148E+01  0.148E+01
 -22.936  0.143E+01  0.143E+01
 -22.921  0.137E+01  0.137E+01
 -22.906  0.130E+01  0.130E+01
 -22.891  0.123E+01  0.123E+01
 -22.876  0.116E+01  0.116E+01
 -22.861  0.109E+01  0.109E+01
 -22.846  0.102E+01  0.102E+01
 -22.831  0.947E+00  0.947E+00
 -22.816  0.876E+00  0.876E+00
 -22.801  0.806E+00  0.806E+00
 -22.786  0.739E+00  0.739E+00
 -22.771  0.674E+00  0.674E+00
 -22.756  0.612E+00  0.612E+00
 -22.741  0.554E+00  0.554E+00
 -22.726  0.500E+00  0.500E+00
 -22.711  0.449E+00  0.449E+00
 -22.696  0.402E+00  0.402E+00
 -22.681  0.359E+00  0.359E+00
 -22.666  0.320E+00  0.320E+00
 -22.651  0.285E+00  0.285E+00
 -22.636  0.253E+00  0.253E+00
 -22.621  0.224E+00  0.224E+00
 -22.606  0.198E+00  0.198E+00
 -22.591  0.176E+00  0.176E+00
 -22.576  0.156E+00  0.156E+00
 -22.561  0.138E+00  0.138E+00
 -22.546  0.123E+00  0.123E+00
 -22.531  0.109E+00  0.109E+00
 -22.516  0.978E-01  0.978E-01
 -22.501  0.878E-01  0.878E-01
 -22.486  0.792E-01  0.792E-01
 -22.471  0.718E-01  0.718E-01
 -22.456  0.654E-01  0.654E-01
 -22.441  0.600E-01  0.600E-01
 -22.426  0.554E-01  0.554E-01
 -22.411  0.515E-01  0.515E-01
 -22.396  0.481E-01  0.481E-01
 -22.381  0.453E-01  0.453E-01
 -22.366  0.429E-01  0.429E-01
 -22.351  0.409E-01  0.409E-01
 -22.336  0.392E-01  0.392E-01
 -22.321  0.378E-01  0.378E-01
 -22.306  0.366E-01  0.366E-01
 -22.291  0.356E-01  0.356E-01
 -22.276  0.348E-01  0.348E-01
 -22.261  0.342E-01  0.342E-01
 -22.246  0.336E-01  0.336E-01
 -22.231  0.332E-01  0.332E-01
 -22.216  0.329E-01  0.329E-01
 -22.201  0.326E-01  0.326E-01
 -22.186  0.323E-01  0.323E-01
 -22.171  0.321E-01  0.321E-01
 -22.156  0.319E-01  0.319E-01
 -22.141  0.317E-01  0.317E-01
 -22.126  0.316E-01  0.316E-01
 -22.111  0.314E-01  0.314E-01
 -22.096  0.311E-01  0.311E-01
 -22.081  0.309E-01  0.309E-01
 -22.066  0.306E-01  0.306E-01
 -22.051  0.302E-01  0.302E-01
 -22.036  0.298E-01  0.298E-01
 -22.021  0.293E-01  0.293E-01
 -22.006  0.288E-01  0.288E-01
 -21.991  0.282E-01  0.282E-01
 -21.976  0.275E-01  0.275E-01
 -21.961  0.268E-01  0.268E-01
 -21.946  0.260E-01  0.260E-01
 -21.931  0.252E-01  0.252E-01
 -21.916  0.243E-01  0.243E-01
 -21.901  0.234E-01  0.234E-01
 -21.886  0.224E-01  0.224E-01
 -21.871  0.214E-01  0.214E-01
 -21.856  0.204E-01  0.204E-01
 -21.841  0.195E-01  0.195E-01
 -21.826  0.185E-01  0.185E-01
 -21.811  0.175E-01  0.175E-01
 -21.796  0.165E-01  0.165E-01
 -21.781  0.156E-01  0.156E-01
 -21.766  0.147E-01  0.147E-01
 -21.751  0.139E-01  0.139E-01
 -21.736  0.131E-01  0.131E-01
 -21.721  0.123E-01  0.123E-01
 -21.706  0.116E-01  0.116E-01
 -21.691  0.110E-01  0.110E-01
 -21.676  0.103E-01  0.103E-01
 -21.661  0.979E-02  0.979E-02
 -21.646  0.928E-02  0.928E-02
 -21.631  0.882E-02  0.882E-02
 -21.616  0.840E-02  0.840E-02
 -21.601  0.802E-02  0.802E-02
 -21.586  0.767E-02  0.767E-02
 -21.571  0.735E-02  0.735E-02
 -21.556  0.706E-02  0.706E-02
 -21.541  0.679E-02  0.679E-02
 -21.526  0.654E-02  0.654E-02
 -21.511  0.630E-02  0.630E-02
 -21.496  0.607E-02  0.607E-02
 -21.481  0.585E-02  0.585E-02
 -21.466  0.564E-02  0.564E-02
 -21.451  0.542E-02  0.542E-02
 -21.436  0.521E-02  0.521E-02
 -21.421  0.500E-02  0.500E-02
 -21.406  0.478E-02  0.478E-02
 -21.391  0.456E-02  0.456E-02
 -21.376  0.434E-02  0.434E-02
 -21.361  0.412E-02  0.412E-02
 -21.346  0.389E-02  0.389E-02
 -21.331  0.367E-02  0.367E-02
 -21.316  0.344E-02  0.344E-02
 -21.301  0.322E-02  0.322E-02
 -21.286  0.300E-02  0.300E-02
 -21.271  0.278E-02  0.278E-02
 -21.256  0.257E-02  0.257E-02
 -21.241  0.237E-02  0.237E-02
 -21.226  0.217E-02  0.217E-02
 -21.211  0.198E-02  0.198E-02
 -21.196  0.180E-02  0.180E-02
 -21.181  0.163E-02  0.163E-02
 -21.166  0.147E-02  0.147E-02
 -21.151  0.131E-02  0.131E-02
 -21.136  0.117E-02  0.117E-02
 -21.121  0.104E-02  0.104E-02
 -21.106  0.924E-03  0.924E-03
 -21.091  0.815E-03  0.815E-03
 -21.076  0.716E-03  0.716E-03
 -21.061  0.626E-03  0.626E-03
 -21.046  0.545E-03  0.545E-03
 -21.031  0.472E-03  0.472E-03
 -21.016  0.407E-03  0.407E-03
 -21.001  0.350E-03  0.350E-03
 -20.986  0.300E-03  0.300E-03
 -20.971  0.255E-03  0.255E-03
 -20.956  0.217E-03  0.217E-03
 -20.941  0.183E-03  0.183E-03
 -20.926  0.154E-03  0.154E-03
 -20.911  0.129E-03  0.129E-03
 -20.896  0.107E-03  0.107E-03
 -20.881  0.892E-04  0.892E-04
 -20.866  0.737E-04  0.737E-04
 -20.851  0.606E-04  0.606E-04
 -20.836  0.496E-04  0.496E-04
 -20.821  0.405E-04  0.405E-04
 -20.806  0.328E-04  0.328E-04
 -20.791  0.265E-04  0.265E-04
 -20.776  0.213E-04  0.213E-04
 -20.761  0.171E-04  0.171E-04
 -20.746  0.136E-04  0.136E-04
 -20.731  0.108E-04  0.108E-04
 -20.716  0.848E-05  0.848E-05
 -20.701  0.666E-05  0.666E-05
 -20.686  0.520E-05  0.520E-05
 -20.671  0.404E-05  0.404E-05
 -20.656  0.312E-05  0.312E-05
 -20.641  0.240E-05  0.240E-05
 -20.626  0.183E-05  0.183E-05
 -20.611  0.139E-05  0.139E-05
 -20.596  0.106E-05  0.106E-05
 -20.581  0.795E-06  0.795E-06
 -20.566  0.595E-06  0.595E-06
 -20.551  0.443E-06  0.443E-06
 -20.536  0.328E-06  0.328E-06
 -20.521  0.242E-06  0.242E-06
 -20.506  0.177E-06  0.177E-06
 -20.491  0.129E-06  0.129E-06
 -20.476  0.935E-07  0.935E-07
 -20.461  0.674E-07  0.674E-07
 -20.446  0.483E-07  0.483E-07
 -20.431  0.344E-07  0.344E-07
 -20.416  0.243E-07  0.243E-07
 -20.401  0.171E-07  0.171E-07
 -20.386  0.120E-07  0.120E-07
 -20.371  0.836E-08  0.836E-08
 -20.356  0.579E-08  0.579E-08
 -20.341  0.398E-08  0.398E-08
 -20.326  0.273E-08  0.273E-08
 -20.311  0.186E-08  0.186E-08
 -20.296  0.125E-08  0.125E-08
 -20.281  0.844E-09  0.844E-09
 -20.266  0.564E-09  0.564E-09
 -20.251  0.375E-09  0.375E-09
 -20.236  0.248E-09  0.248E-09
 -20.221  0.163E-09  0.163E-09
 -20.206  0.106E-09  0.106E-09
 -20.191  0.690E-10  0.690E-10
 -20.176  0.445E-10  0.445E-10
 -20.161  0.286E-10  0.286E-10
 -20.146  0.182E-10  0.182E-10
 -20.131  0.115E-10  0.115E-10
 -20.116  0.727E-11  0.727E-11
 -20.101  0.455E-11  0.455E-11
 -20.086  0.283E-11  0.283E-11
 -20.071  0.174E-11  0.174E-11
 -20.056  0.107E-11  0.107E-11
 -20.041  0.656E-12  0.656E-12
 -20.026  0.399E-12  0.399E-12
 -20.011  0.241E-12  0.241E-12
 -19.996  0.145E-12  0.145E-12
 -19.981  0.867E-13  0.867E-13
 -19.966  0.510E-13  0.510E-13
 -19.951  0.301E-13  0.301E-13
 -19.936  0.177E-13  0.177E-13
 -19.921  0.103E-13  0.103E-13
 -19.906  0.505E-14  0.505E-14
 -19.891  0.237E-14  0.237E-14
 -19.876  0.936E-15  0.936E-15
 -19.861  0.000E+00  0.000E+00
 -19.846  0.000E+00  0.000E+00
 -19.831  0.000E+00  0.000E+00
 -19.816  0.000E+00  0.000E+00
 -19.801  0.000E+00  0.000E+00
 -19.786  0.000E+00  0.000E+00
 -19.771  0.000E+00  0.000E+00
 -19.756  0.000E+00  0.000E+00
 -19.741  0.000E+00  0.000E+00
 -19.726  0.000E+00  0.000E+00
 -19.711  0.000E+00  0.000E+00
 -19.696  0.000E+00  0.000E+00
 -19.681  0.000E+00  0.000E+00
 -19.666  0.000E+00  0.000E+00
 -19.651  0.000E+00  0.000E+00
 -19.636  0.000E+00  0.000E+00
 -19.621  0.000E+00  0.000E+00
 -19.606  0.000E+00  0.000E+00
 -19.591  0.000E+00  0.000E+00
 -19.576  0.000E+00  0.000E+00
 -19.561  0.000E+00  0.000E+00
 -19.546  0.000E+00  0.000E+00
 -19.531  0.000E+00  0.000E+00
 -19.516  0.000E+00  0.000E+00
 -19.501  0.000E+00  0.000E+00
 -19.486  0.000E+00  0.000E+00
 -19.471  0.000E+00  0.000E+00
 -19.456  0.000E+00  0.000E+00
 -19.441  0.000E+00  0.000E+00
 -19.426  0.000E+00  0.000E+00
 -19.411  0.000E+00  0.000E+00
 -19.396  0.000E+00  0.000E+00
 -19.381  0.000E+00  0.000E+00
 -19.366  0.000E+00  0.000E+00
 -19.351  0.000E+00  0.000E+00
 -19.336  0.000E+00  0.000E+00
 -19.321  0.000E+00  0.000E+00
 -19.306  0.000E+00  0.000E+00
 -19.291  0.000E+00  0.000E+00
 -19.276  0.000E+00  0.000E+00
 -19.261  0.000E+00  0.000E+00
 -19.246  0.000E+00  0.000E+00
 -19.231  0.000E+00  0.000E+00
 -19.216  0.000E+00  0.000E+00
 -19.201  0.000E+00  0.000E+00
 -19.186  0.000E+00  0.000E+00
 -19.171  0.000E+00  0.000E+00
 -19.156  0.000E+00  0.000E+00
 -19.141  0.000E+00  0.000E+00
 -19.126  0.000E+00  0.000E+00
 -19.111  0.000E+00  0.000E+00
 -19.096  0.000E+00  0.000E+00
 -19.081  0.000E+00  0.000E+00
 -19.066  0.000E+00  0.000E+00
 -19.051  0.000E+00  0.000E+00
 -19.036  0.000E+00  0.000E+00
 -19.021  0.000E+00  0.000E+00
 -19.006  0.000E+00  0.000E+00
 -18.991  0.000E+00  0.000E+00
 -18.976  0.000E+00  0.000E+00
 -18.961  0.000E+00  0.000E+00
 -18.946  0.000E+00  0.000E+00
 -18.931  0.000E+00  0.000E+00
 -18.916  0.000E+00  0.000E+00
 -18.901  0.000E+00  0.000E+00
 -18.886  0.000E+00  0.000E+00
 -18.871  0.000E+00  0.000E+00
 -18.856  0.000E+00  0.000E+00
 -18.841  0.000E+00  0.000E+00
 -18.826  0.000E+00  0.000E+00
 -18.811  0.000E+00  0.000E+00
 -18.796  0.000E+00  0.000E+00
 -18.781  0.000E+00  0.000E+00
 -18.766  0.000E+00  0.000E+00
 -18.751  0.000E+00  0.000E+00
 -18.736  0.000E+00  0.000E+00
 -18.721  0.000E+00  0.000E+00
 -18.706  0.000E+00  0.000E+00
 -18.691  0.000E+00  0.000E+00
 -18.676  0.000E+00  0.000E+00
 -18.661  0.000E+00  0.000E+00
 -18.646  0.000E+00  0.000E+00
 -18.631  0.000E+00  0.000E+00
 -18.616  0.000E+00  0.000E+00
 -18.601  0.000E+00  0.000E+00
 -18.586  0.000E+00  0.000E+00
 -18.571  0.000E+00  0.000E+00
 -18.556  0.000E+00  0.000E+00
 -18.541  0.000E+00  0.000E+00
 -18.526  0.000E+00  0.000E+00
 -18.511  0.000E+00  0.000E+00
 -18.496  0.000E+00  0.000E+00
 -18.481  0.000E+00  0.000E+00
 -18.466  0.000E+00  0.000E+00
 -18.451  0.000E+00  0.000E+00
 -18.436  0.000E+00  0.000E+00
 -18.421  0.000E+00  0.000E+00
 -18.406  0.000E+00  0.000E+00
 -18.391  0.000E+00  0.000E+00
 -18.376  0.000E+00  0.000E+00
 -18.361  0.000E+00  0.000E+00
 -18.346  0.000E+00  0.000E+00
 -18.331  0.000E+00  0.000E+00
 -18.316  0.000E+00  0.000E+00
 -18.301  0.000E+00  0.000E+00
 -18.286  0.000E+00  0.000E+00
 -18.271  0.000E+00  0.000E+00
 -18.256  0.000E+00  0.000E+00
 -18.241  0.000E+00  0.000E+00
 -18.226  0.000E+00  0.000E+00
 -18.211  0.000E+00  0.000E+00
 -18.196  0.000E+00  0.000E+00
 -18.181  0.000E+00  0.000E+00
 -18.166  0.000E+00  0.000E+00
 -18.151  0.000E+00  0.000E+00
 -18.136  0.000E+00  0.000E+00
 -18.121  0.000E+00  0.000E+00
 -18.106  0.000E+00  0.000E+00
 -18.091  0.000E+00  0.000E+00
 -18.076  0.000E+00  0.000E+00
 -18.061  0.000E+00  0.000E+00
 -18.046  0.000E+00  0.000E+00
 -18.031  0.000E+00  0.000E+00
 -18.016  0.000E+00  0.000E+00
 -18.001  0.000E+00  0.000E+00
 -17.986  0.000E+00  0.000E+00
 -17.971  0.000E+00  0.000E+00
 -17.956  0.000E+00  0.000E+00
 -17.941  0.000E+00  0.000E+00
 -17.926  0.000E+00  0.000E+00
 -17.911  0.000E+00  0.000E+00
 -17.896  0.000E+00  0.000E+00
 -17.881  0.000E+00  0.000E+00
 -17.866  0.000E+00  0.000E+00
 -17.851  0.000E+00  0.000E+00
 -17.836  0.000E+00  0.000E+00
 -17.821  0.000E+00  0.000E+00
 -17.806  0.000E+00  0.000E+00
 -17.791  0.000E+00  0.000E+00
 -17.776  0.000E+00  0.000E+00
 -17.761  0.000E+00  0.000E+00
 -17.746  0.000E+00  0.000E+00
 -17.731  0.000E+00  0.000E+00
 -17.716  0.000E+00  0.000E+00
 -17.701  0.000E+00  0.000E+00
 -17.686  0.000E+00  0.000E+00
 -17.671  0.000E+00  0.000E+00
 -17.656  0.000E+00  0.000E+00
 -17.641  0.000E+00  0.000E+00
 -17.626  0.000E+00  0.000E+00
 -17.611  0.000E+00  0.000E+00
 -17.596  0.000E+00  0.000E+00
 -17.581  0.000E+00  0.000E+00
 -17.566  0.000E+00  0.000E+00
 -17.551  0.000E+00  0.000E+00
 -17.536  0.000E+00  0.000E+00
 -17.521  0.000E+00  0.000E+00
 -17.506  0.000E+00  0.000E+00
 -17.491  0.000E+00  0.000E+00
 -17.476  0.000E+00  0.000E+00
 -17.461  0.000E+00  0.000E+00
 -17.446  0.000E+00  0.000E+00
 -17.431  0.000E+00  0.000E+00
 -17.416  0.000E+00  0.000E+00
 -17.401  0.000E+00  0.000E+00
 -17.386  0.000E+00  0.000E+00
 -17.371  0.000E+00  0.000E+00
 -17.356  0.000E+00  0.000E+00
 -17.341  0.000E+00  0.000E+00
 -17.326  0.000E+00  0.000E+00
 -17.311  0.000E+00  0.000E+00
 -17.296  0.000E+00  0.000E+00
 -17.281  0.000E+00  0.000E+00
 -17.266  0.000E+00  0.000E+00
 -17.251  0.000E+00  0.000E+00
 -17.236  0.000E+00  0.000E+00
 -17.221  0.000E+00  0.000E+00
 -17.206  0.000E+00  0.000E+00
 -17.191  0.000E+00  0.000E+00
 -17.176  0.000E+00  0.000E+00
 -17.161  0.000E+00  0.000E+00
 -17.146  0.000E+00  0.000E+00
 -17.131  0.000E+00  0.000E+00
 -17.116  0.000E+00  0.000E+00
 -17.101  0.000E+00  0.000E+00
 -17.086  0.000E+00  0.000E+00
 -17.071  0.000E+00  0.000E+00
 -17.056  0.000E+00  0.000E+00
 -17.041  0.000E+00  0.000E+00
 -17.026  0.000E+00  0.000E+00
 -17.011  0.000E+00  0.000E+00
 -16.996  0.000E+00  0.000E+00
 -16.981  0.000E+00  0.000E+00
 -16.966  0.000E+00  0.000E+00
 -16.951  0.000E+00  0.000E+00
 -16.936  0.000E+00  0.000E+00
 -16.921  0.000E+00  0.000E+00
 -16.906  0.000E+00  0.000E+00
 -16.891  0.000E+00  0.000E+00
 -16.876  0.000E+00  0.000E+00
 -16.861  0.000E+00  0.000E+00
 -16.846  0.000E+00  0.000E+00
 -16.831  0.000E+00  0.000E+00
 -16.816  0.000E+00  0.000E+00
 -16.801  0.000E+00  0.000E+00
 -16.786  0.000E+00  0.000E+00
 -16.771  0.000E+00  0.000E+00
 -16.756  0.000E+00  0.000E+00
 -16.741  0.000E+00  0.000E+00
 -16.726  0.000E+00  0.000E+00
 -16.711  0.000E+00  0.000E+00
 -16.696  0.000E+00  0.000E+00
 -16.681  0.000E+00  0.000E+00
 -16.666  0.000E+00  0.000E+00
 -16.651  0.000E+00  0.000E+00
 -16.636  0.000E+00  0.000E+00
 -16.621  0.000E+00  0.000E+00
 -16.606  0.000E+00  0.000E+00
 -16.591  0.000E+00  0.000E+00
 -16.576  0.000E+00  0.000E+00
 -16.561  0.000E+00  0.000E+00
 -16.546  0.000E+00  0.000E+00
 -16.531  0.000E+00  0.000E+00
 -16.516  0.000E+00  0.000E+00
 -16.501  0.000E+00  0.000E+00
 -16.486  0.000E+00  0.000E+00
 -16.471  0.000E+00  0.000E+00
 -16.456  0.000E+00  0.000E+00
 -16.441  0.000E+00  0.000E+00
 -16.426  0.000E+00  0.000E+00
 -16.411  0.000E+00  0.000E+00
 -16.396  0.000E+00  0.000E+00
 -16.381  0.000E+00  0.000E+00
 -16.366  0.000E+00  0.000E+00
 -16.351  0.000E+00  0.000E+00
 -16.336  0.000E+00  0.000E+00
 -16.321  0.000E+00  0.000E+00
 -16.306  0.000E+00  0.000E+00
 -16.291  0.000E+00  0.000E+00
 -16.276  0.000E+00  0.000E+00
 -16.261  0.000E+00  0.000E+00
 -16.246  0.000E+00  0.000E+00
 -16.231  0.000E+00  0.000E+00
 -16.216  0.000E+00  0.000E+00
 -16.201  0.000E+00  0.000E+00
 -16.186  0.000E+00  0.000E+00
 -16.171  0.000E+00  0.000E+00
 -16.156  0.000E+00  0.000E+00
 -16.141  0.000E+00  0.000E+00
 -16.126  0.000E+00  0.000E+00
 -16.111  0.000E+00  0.000E+00
 -16.096  0.000E+00  0.000E+00
 -16.081  0.000E+00  0.000E+00
 -16.066  0.000E+00  0.000E+00
 -16.051  0.000E+00  0.000E+00
 -16.036  0.000E+00  0.000E+00
 -16.021  0.000E+00  0.000E+00
 -16.006  0.000E+00  0.000E+00
 -15.991  0.000E+00  0.000E+00
 -15.976  0.000E+00  0.000E+00
 -15.961  0.000E+00  0.000E+00
 -15.946  0.000E+00  0.000E+00
 -15.931  0.000E+00  0.000E+00
 -15.916  0.000E+00  0.000E+00
 -15.901  0.000E+00  0.000E+00
 -15.886  0.000E+00  0.000E+00
 -15.871  0.000E+00  0.000E+00
 -15.856  0.000E+00  0.000E+00
 -15.841  0.000E+00  0.000E+00
 -15.826  0.000E+00  0.000E+00
 -15.811  0.000E+00  0.000E+00
 -15.796  0.000E+00  0.000E+00
 -15.781  0.000E+00  0.000E+00
 -15.766  0.000E+00  0.000E+00
 -15.751  0.000E+00  0.000E+00
 -15.736  0.000E+00  0.000E+00
 -15.721  0.000E+00  0.000E+00
 -15.706  0.000E+00  0.000E+00
 -15.691  0.000E+00  0.000E+00
 -15.676  0.000E+00  0.000E+00
 -15.661  0.000E+00  0.000E+00
 -15.646  0.000E+00  0.000E+00
 -15.631  0.000E+00  0.000E+00
 -15.616  0.000E+00  0.000E+00
 -15.601  0.000E+00  0.000E+00
 -15.586  0.000E+00  0.000E+00
 -15.571  0.000E+00  0.000E+00
 -15.556  0.000E+00  0.000E+00
 -15.541  0.000E+00  0.000E+00
 -15.526  0.000E+00  0.000E+00
 -15.511  0.000E+00  0.000E+00
 -15.496  0.000E+00  0.000E+00
 -15.481  0.000E+00  0.000E+00
 -15.466  0.000E+00  0.000E+00
 -15.451  0.000E+00  0.000E+00
 -15.436  0.000E+00  0.000E+00
 -15.421  0.000E+00  0.000E+00
 -15.406  0.000E+00  0.000E+00
 -15.391  0.000E+00  0.000E+00
 -15.376  0.000E+00  0.000E+00
 -15.361  0.000E+00  0.000E+00
 -15.346  0.000E+00  0.000E+00
 -15.331  0.000E+00  0.000E+00
 -15.316  0.000E+00  0.000E+00
 -15.301  0.000E+00  0.000E+00
 -15.286  0.000E+00  0.000E+00
 -15.271  0.000E+00  0.000E+00
 -15.256  0.000E+00  0.000E+00
 -15.241  0.000E+00  0.000E+00
 -15.226  0.000E+00  0.000E+00
 -15.211  0.000E+00  0.000E+00
 -15.196  0.000E+00  0.000E+00
 -15.181  0.000E+00  0.000E+00
 -15.166  0.000E+00  0.000E+00
 -15.151  0.000E+00  0.000E+00
 -15.136  0.000E+00  0.000E+00
 -15.121  0.000E+00  0.000E+00
 -15.106  0.000E+00  0.000E+00
 -15.091  0.000E+00  0.000E+00
 -15.076  0.000E+00  0.000E+00
 -15.061  0.000E+00  0.000E+00
 -15.046  0.000E+00  0.000E+00
 -15.031  0.000E+00  0.000E+00
 -15.016  0.000E+00  0.000E+00
 -15.001  0.000E+00  0.000E+00
 -14.986  0.000E+00  0.000E+00
 -14.971  0.000E+00  0.000E+00
 -14.956  0.000E+00  0.000E+00
 -14.941  0.000E+00  0.000E+00
 -14.926  0.000E+00  0.000E+00
 -14.911  0.000E+00  0.000E+00
 -14.896  0.000E+00  0.000E+00
 -14.881  0.000E+00  0.000E+00
 -14.866  0.000E+00  0.000E+00
 -14.851  0.000E+00  0.000E+00
 -14.836  0.000E+00  0.000E+00
 -14.821  0.350E-11  0.350E-11
 -14.806  0.608E-11  0.608E-11
 -14.791  0.105E-10  0.105E-10
 -14.776  0.180E-10  0.180E-10
 -14.761  0.307E-10  0.307E-10
 -14.746  0.520E-10  0.520E-10
 -14.731  0.876E-10  0.876E-10
 -14.716  0.147E-09  0.147E-09
 -14.701  0.244E-09  0.244E-09
 -14.686  0.404E-09  0.404E-09
 -14.671  0.664E-09  0.664E-09
 -14.656  0.108E-08  0.108E-08
 -14.641  0.176E-08  0.176E-08
 -14.626  0.284E-08  0.284E-08
 -14.611  0.456E-08  0.456E-08
 -14.596  0.727E-08  0.727E-08
 -14.581  0.115E-07  0.115E-07
 -14.566  0.182E-07  0.182E-07
 -14.551  0.284E-07  0.284E-07
 -14.536  0.442E-07  0.442E-07
 -14.521  0.684E-07  0.684E-07
 -14.506  0.105E-06  0.105E-06
 -14.491  0.161E-06  0.161E-06
 -14.476  0.244E-06  0.244E-06
 -14.461  0.369E-06  0.369E-06
 -14.446  0.553E-06  0.553E-06
 -14.431  0.825E-06  0.825E-06
 -14.416  0.122E-05  0.122E-05
 -14.401  0.180E-05  0.180E-05
 -14.386  0.264E-05  0.264E-05
 -14.371  0.384E-05  0.384E-05
 -14.356  0.556E-05  0.556E-05
 -14.341  0.800E-05  0.800E-05
 -14.326  0.114E-04  0.114E-04
 -14.311  0.162E-04  0.162E-04
 -14.296  0.229E-04  0.229E-04
 -14.281  0.322E-04  0.322E-04
 -14.266  0.449E-04  0.449E-04
 -14.251  0.623E-04  0.623E-04
 -14.236  0.858E-04  0.858E-04
 -14.221  0.118E-03  0.118E-03
 -14.206  0.160E-03  0.160E-03
 -14.191  0.217E-03  0.217E-03
 -14.176  0.291E-03  0.291E-03
 -14.161  0.390E-03  0.390E-03
 -14.146  0.518E-03  0.518E-03
 -14.131  0.684E-03  0.684E-03
 -14.116  0.898E-03  0.898E-03
 -14.101  0.117E-02  0.117E-02
 -14.086  0.152E-02  0.152E-02
 -14.071  0.196E-02  0.196E-02
 -14.056  0.251E-02  0.251E-02
 -14.041  0.320E-02  0.320E-02
 -14.026  0.405E-02  0.405E-02
 -14.011  0.509E-02  0.509E-02
 -13.996  0.637E-02  0.637E-02
 -13.981  0.791E-02  0.791E-02
 -13.966  0.978E-02  0.978E-02
 -13.951  0.120E-01  0.120E-01
 -13.936  0.147E-01  0.147E-01
 -13.921  0.178E-01  0.178E-01
 -13.906  0.214E-01  0.214E-01
 -13.891  0.257E-01  0.257E-01
 -13.876  0.306E-01  0.306E-01
 -13.861  0.362E-01  0.362E-01
 -13.846  0.427E-01  0.427E-01
 -13.831  0.499E-01  0.499E-01
 -13.816  0.580E-01  0.580E-01
 -13.801  0.671E-01  0.671E-01
 -13.786  0.770E-01  0.770E-01
 -13.771  0.880E-01  0.880E-01
 -13.756  0.998E-01  0.998E-01
 -13.741  0.113E+00  0.113E+00
 -13.726  0.126E+00  0.126E+00
 -13.711  0.141E+00  0.141E+00
 -13.696  0.156E+00  0.156E+00
 -13.681  0.172E+00  0.172E+00
 -13.666  0.188E+00  0.188E+00
 -13.651  0.204E+00  0.204E+00
 -13.636  0.221E+00  0.221E+00
 -13.621  0.237E+00  0.237E+00
 -13.606  0.254E+00  0.254E+00
 -13.591  0.269E+00  0.269E+00
 -13.576  0.284E+00  0.284E+00
 -13.561  0.298E+00  0.298E+00
 -13.546  0.311E+00  0.311E+00
 -13.531  0.322E+00  0.322E+00
 -13.516  0.332E+00  0.332E+00
 -13.501  0.340E+00  0.340E+00
 -13.486  0.346E+00  0.346E+00
 -13.471  0.350E+00  0.350E+00
 -13.456  0.352E+00  0.352E+00
 -13.441  0.352E+00  0.352E+00
 -13.426  0.350E+00  0.350E+00
 -13.411  0.345E+00  0.345E+00
 -13.396  0.339E+00  0.339E+00
 -13.381  0.331E+00  0.331E+00
 -13.366  0.321E+00  0.321E+00
 -13.351  0.310E+00  0.310E+00
 -13.336  0.297E+00  0.297E+00
 -13.321  0.283E+00  0.283E+00
 -13.306  0.268E+00  0.268E+00
 -13.291  0.252E+00  0.252E+00
 -13.276  0.236E+00  0.236E+00
 -13.261  0.220E+00  0.220E+00
 -13.246  0.203E+00  0.203E+00
 -13.231  0.187E+00  0.187E+00
 -13.216  0.171E+00  0.171E+00
 -13.201  0.156E+00  0.156E+00
 -13.186  0.141E+00  0.141E+00
 -13.171  0.127E+00  0.127E+00
 -13.156  0.113E+00  0.113E+00
 -13.141  0.101E+00  0.101E+00
 -13.126  0.891E-01  0.891E-01
 -13.111  0.784E-01  0.784E-01
 -13.096  0.686E-01  0.686E-01
 -13.081  0.598E-01  0.598E-01
 -13.066  0.518E-01  0.518E-01
 -13.051  0.447E-01  0.447E-01
 -13.036  0.384E-01  0.384E-01
 -13.021  0.328E-01  0.328E-01
 -13.006  0.280E-01  0.280E-01
 -12.991  0.238E-01  0.238E-01
 -12.976  0.201E-01  0.201E-01
 -12.961  0.170E-01  0.170E-01
 -12.946  0.143E-01  0.143E-01
 -12.931  0.121E-01  0.121E-01
 -12.916  0.102E-01  0.102E-01
 -12.901  0.860E-02  0.860E-02
 -12.886  0.727E-02  0.727E-02
 -12.871  0.617E-02  0.617E-02
 -12.856  0.526E-02  0.526E-02
 -12.841  0.451E-02  0.451E-02
 -12.826  0.389E-02  0.389E-02
 -12.811  0.339E-02  0.339E-02
 -12.796  0.298E-02  0.298E-02
 -12.781  0.265E-02  0.265E-02
 -12.766  0.238E-02  0.238E-02
 -12.751  0.216E-02  0.216E-02
 -12.736  0.198E-02  0.198E-02
 -12.721  0.184E-02  0.184E-02
 -12.706  0.173E-02  0.173E-02
 -12.691  0.164E-02  0.164E-02
 -12.676  0.157E-02  0.157E-02
 -12.661  0.152E-02  0.152E-02
 -12.646  0.148E-02  0.148E-02
 -12.631  0.145E-02  0.145E-02
 -12.616  0.144E-02  0.144E-02
 -12.601  0.143E-02  0.143E-02
 -12.586  0.144E-02  0.144E-02
 -12.571  0.145E-02  0.145E-02
 -12.556  0.147E-02  0.147E-02
 -12.541  0.149E-02  0.149E-02
 -12.526  0.152E-02  0.152E-02
 -12.511  0.156E-02  0.156E-02
 -12.496  0.160E-02  0.160E-02
 -12.481  0.165E-02  0.165E-02
 -12.466  0.170E-02  0.170E-02
 -12.451  0.175E-02  0.175E-02
 -12.436  0.181E-02  0.181E-02
 -12.421  0.188E-02  0.188E-02
 -12.406  0.195E-02  0.195E-02
 -12.391  0.203E-02  0.203E-02
 -12.376  0.211E-02  0.211E-02
 -12.361  0.220E-02  0.220E-02
 -12.346  0.230E-02  0.230E-02
 -12.331  0.241E-02  0.241E-02
 -12.316  0.253E-02  0.253E-02
 -12.301  0.267E-02  0.267E-02
 -12.286  0.283E-02  0.283E-02
 -12.271  0.302E-02  0.302E-02
 -12.256  0.324E-02  0.324E-02
 -12.241  0.349E-02  0.349E-02
 -12.226  0.378E-02  0.378E-02
 -12.211  0.413E-02  0.413E-02
 -12.196  0.453E-02  0.453E-02
 -12.181  0.500E-02  0.500E-02
 -12.166  0.555E-02  0.555E-02
 -12.151  0.618E-02  0.618E-02
 -12.136  0.691E-02  0.691E-02
 -12.121  0.775E-02  0.775E-02
 -12.106  0.870E-02  0.870E-02
 -12.091  0.977E-02  0.977E-02
 -12.076  0.110E-01  0.110E-01
 -12.061  0.123E-01  0.123E-01
 -12.046  0.138E-01  0.138E-01
 -12.031  0.154E-01  0.154E-01
 -12.016  0.172E-01  0.172E-01
 -12.001  0.191E-01  0.191E-01
 -11.986  0.211E-01  0.211E-01
 -11.971  0.233E-01  0.233E-01
 -11.956  0.256E-01  0.256E-01
 -11.941  0.279E-01  0.279E-01
 -11.926  0.304E-01  0.304E-01
 -11.911  0.329E-01  0.329E-01
 -11.896  0.354E-01  0.354E-01
 -11.881  0.379E-01  0.379E-01
 -11.866  0.404E-01  0.404E-01
 -11.851  0.428E-01  0.428E-01
 -11.836  0.452E-01  0.452E-01
 -11.821  0.474E-01  0.474E-01
 -11.806  0.494E-01  0.494E-01
 -11.791  0.512E-01  0.512E-01
 -11.776  0.528E-01  0.528E-01
 -11.761  0.542E-01  0.542E-01
 -11.746  0.553E-01  0.553E-01
 -11.731  0.561E-01  0.561E-01
 -11.716  0.566E-01  0.566E-01
 -11.701  0.568E-01  0.568E-01
 -11.686  0.567E-01  0.567E-01
 -11.671  0.563E-01  0.563E-01
 -11.656  0.557E-01  0.557E-01
 -11.641  0.548E-01  0.548E-01
 -11.626  0.536E-01  0.536E-01
 -11.611  0.523E-01  0.523E-01
 -11.596  0.507E-01  0.507E-01
 -11.581  0.491E-01  0.491E-01
 -11.566  0.472E-01  0.472E-01
 -11.551  0.454E-01  0.454E-01
 -11.536  0.434E-01  0.434E-01
 -11.521  0.415E-01  0.415E-01
 -11.506  0.396E-01  0.396E-01
 -11.491  0.377E-01  0.377E-01
 -11.476  0.359E-01  0.359E-01
 -11.461  0.342E-01  0.342E-01
 -11.446  0.327E-01  0.327E-01
 -11.431  0.313E-01  0.313E-01
 -11.416  0.301E-01  0.301E-01
 -11.401  0.291E-01  0.291E-01
 -11.386  0.282E-01  0.282E-01
 -11.371  0.276E-01  0.276E-01
 -11.356  0.271E-01  0.271E-01
 -11.341  0.269E-01  0.269E-01
 -11.326  0.268E-01  0.268E-01
 -11.311  0.270E-01  0.270E-01
 -11.296  0.273E-01  0.273E-01
 -11.281  0.279E-01  0.279E-01
 -11.266  0.286E-01  0.286E-01
 -11.251  0.296E-01  0.296E-01
 -11.236  0.307E-01  0.307E-01
 -11.221  0.319E-01  0.319E-01
 -11.206  0.334E-01  0.334E-01
 -11.191  0.350E-01  0.350E-01
 -11.176  0.368E-01  0.368E-01
 -11.161  0.388E-01  0.388E-01
 -11.146  0.409E-01  0.409E-01
 -11.131  0.432E-01  0.432E-01
 -11.116  0.457E-01  0.457E-01
 -11.101  0.483E-01  0.483E-01
 -11.086  0.511E-01  0.511E-01
 -11.071  0.541E-01  0.541E-01
 -11.056  0.572E-01  0.572E-01
 -11.041  0.605E-01  0.605E-01
 -11.026  0.640E-01  0.640E-01
 -11.011  0.676E-01  0.676E-01
 -10.996  0.713E-01  0.713E-01
 -10.981  0.752E-01  0.752E-01
 -10.966  0.791E-01  0.791E-01
 -10.951  0.832E-01  0.832E-01
 -10.936  0.873E-01  0.873E-01
 -10.921  0.914E-01  0.914E-01
 -10.906  0.955E-01  0.955E-01
 -10.891  0.996E-01  0.996E-01
 -10.876  0.104E+00  0.104E+00
 -10.861  0.108E+00  0.108E+00
 -10.846  0.111E+00  0.111E+00
 -10.831  0.115E+00  0.115E+00
 -10.816  0.118E+00  0.118E+00
 -10.801  0.122E+00  0.122E+00
 -10.786  0.125E+00  0.125E+00
 -10.771  0.127E+00  0.127E+00
 -10.756  0.129E+00  0.129E+00
 -10.741  0.131E+00  0.131E+00
 -10.726  0.133E+00  0.133E+00
 -10.711  0.134E+00  0.134E+00
 -10.696  0.135E+00  0.135E+00
 -10.681  0.136E+00  0.136E+00
 -10.666  0.136E+00  0.136E+00
 -10.651  0.136E+00  0.136E+00
 -10.636  0.135E+00  0.135E+00
 -10.621  0.134E+00  0.134E+00
 -10.606  0.133E+00  0.133E+00
 -10.591  0.132E+00  0.132E+00
 -10.576  0.130E+00  0.130E+00
 -10.561  0.128E+00  0.128E+00
 -10.546  0.126E+00  0.126E+00
 -10.531  0.124E+00  0.124E+00
 -10.516  0.121E+00  0.121E+00
 -10.501  0.118E+00  0.118E+00
 -10.486  0.115E+00  0.115E+00
 -10.471  0.112E+00  0.112E+00
 -10.456  0.109E+00  0.109E+00
 -10.441  0.106E+00  0.106E+00
 -10.426  0.103E+00  0.103E+00
 -10.411  0.998E-01  0.998E-01
 -10.396  0.965E-01  0.965E-01
 -10.381  0.932E-01  0.932E-01
 -10.366  0.899E-01  0.899E-01
 -10.351  0.867E-01  0.867E-01
 -10.336  0.836E-01  0.836E-01
 -10.321  0.807E-01  0.807E-01
 -10.306  0.778E-01  0.778E-01
 -10.291  0.752E-01  0.752E-01
 -10.276  0.729E-01  0.729E-01
 -10.261  0.708E-01  0.708E-01
 -10.246  0.691E-01  0.691E-01
 -10.231  0.677E-01  0.677E-01
 -10.216  0.668E-01  0.668E-01
 -10.201  0.664E-01  0.664E-01
 -10.186  0.665E-01  0.665E-01
 -10.171  0.672E-01  0.672E-01
 -10.156  0.685E-01  0.685E-01
 -10.141  0.704E-01  0.704E-01
 -10.126  0.730E-01  0.730E-01
 -10.111  0.763E-01  0.763E-01
 -10.096  0.802E-01  0.802E-01
 -10.081  0.848E-01  0.848E-01
 -10.066  0.901E-01  0.901E-01
 -10.051  0.960E-01  0.960E-01
 -10.036  0.102E+00  0.102E+00
 -10.021  0.110E+00  0.110E+00
 -10.006  0.117E+00  0.117E+00
  -9.991  0.125E+00  0.125E+00
  -9.976  0.133E+00  0.133E+00
  -9.961  0.142E+00  0.142E+00
  -9.946  0.151E+00  0.151E+00
  -9.931  0.159E+00  0.159E+00
  -9.916  0.168E+00  0.168E+00
  -9.901  0.177E+00  0.177E+00
  -9.886  0.185E+00  0.185E+00
  -9.871  0.193E+00  0.193E+00
  -9.856  0.200E+00  0.200E+00
  -9.841  0.207E+00  0.207E+00
  -9.826  0.213E+00  0.213E+00
  -9.811  0.219E+00  0.219E+00
  -9.796  0.224E+00  0.224E+00
  -9.781  0.228E+00  0.228E+00
  -9.766  0.231E+00  0.231E+00
  -9.751  0.233E+00  0.233E+00
  -9.736  0.235E+00  0.235E+00
  -9.721  0.236E+00  0.236E+00
  -9.706  0.236E+00  0.236E+00
  -9.691  0.235E+00  0.235E+00
  -9.676  0.234E+00  0.234E+00
  -9.661  0.232E+00  0.232E+00
  -9.646  0.230E+00  0.230E+00
  -9.631  0.227E+00  0.227E+00
  -9.616  0.224E+00  0.224E+00
  -9.601  0.220E+00  0.220E+00
  -9.586  0.217E+00  0.217E+00
  -9.571  0.213E+00  0.213E+00
  -9.556  0.209E+00  0.209E+00
  -9.541  0.205E+00  0.205E+00
  -9.526  0.201E+00  0.201E+00
  -9.511  0.197E+00  0.197E+00
  -9.496  0.193E+00  0.193E+00
  -9.481  0.189E+00  0.189E+00
  -9.466  0.186E+00  0.186E+00
  -9.451  0.182E+00  0.182E+00
  -9.436  0.179E+00  0.179E+00
  -9.421  0.176E+00  0.176E+00
  -9.406  0.172E+00  0.172E+00
  -9.391  0.169E+00  0.169E+00
  -9.376  0.166E+00  0.166E+00
  -9.361  0.163E+00  0.163E+00
  -9.346  0.160E+00  0.160E+00
  -9.331  0.158E+00  0.158E+00
  -9.316  0.155E+00  0.155E+00
  -9.301  0.152E+00  0.152E+00
  -9.286  0.149E+00  0.149E+00
  -9.271  0.146E+00  0.146E+00
  -9.256  0.144E+00  0.144E+00
  -9.241  0.141E+00  0.141E+00
  -9.226  0.138E+00  0.138E+00
  -9.211  0.135E+00  0.135E+00
  -9.196  0.133E+00  0.133E+00
  -9.181  0.130E+00  0.130E+00
  -9.166  0.127E+00  0.127E+00
  -9.151  0.125E+00  0.125E+00
  -9.136  0.122E+00  0.122E+00
  -9.121  0.119E+00  0.119E+00
  -9.106  0.117E+00  0.117E+00
  -9.091  0.114E+00  0.114E+00
  -9.076  0.112E+00  0.112E+00
  -9.061  0.109E+00  0.109E+00
  -9.046  0.107E+00  0.107E+00
  -9.031  0.104E+00  0.104E+00
  -9.016  0.102E+00  0.102E+00
  -9.001  0.998E-01  0.998E-01
  -8.986  0.974E-01  0.974E-01
  -8.971  0.952E-01  0.952E-01
  -8.956  0.929E-01  0.929E-01
  -8.941  0.906E-01  0.906E-01
  -8.926  0.884E-01  0.884E-01
  -8.911  0.862E-01  0.862E-01
  -8.896  0.840E-01  0.840E-01
  -8.881  0.818E-01  0.818E-01
  -8.866  0.797E-01  0.797E-01
  -8.851  0.775E-01  0.775E-01
  -8.836  0.754E-01  0.754E-01
  -8.821  0.734E-01  0.734E-01
  -8.806  0.714E-01  0.714E-01
  -8.791  0.694E-01  0.694E-01
  -8.776  0.674E-01  0.674E-01
  -8.761  0.655E-01  0.655E-01
  -8.746  0.636E-01  0.636E-01
  -8.731  0.618E-01  0.618E-01
  -8.716  0.600E-01  0.600E-01
  -8.701  0.583E-01  0.583E-01
  -8.686  0.566E-01  0.566E-01
  -8.671  0.549E-01  0.549E-01
  -8.656  0.532E-01  0.532E-01
  -8.641  0.516E-01  0.516E-01
  -8.626  0.500E-01  0.500E-01
  -8.611  0.484E-01  0.484E-01
  -8.596  0.469E-01  0.469E-01
  -8.581  0.453E-01  0.453E-01
  -8.566  0.437E-01  0.437E-01
  -8.551  0.422E-01  0.422E-01
  -8.536  0.406E-01  0.406E-01
  -8.521  0.391E-01  0.391E-01
  -8.506  0.375E-01  0.375E-01
  -8.491  0.360E-01  0.360E-01
  -8.476  0.344E-01  0.344E-01
  -8.461  0.329E-01  0.329E-01
  -8.446  0.314E-01  0.314E-01
  -8.431  0.300E-01  0.300E-01
  -8.416  0.285E-01  0.285E-01
  -8.401  0.271E-01  0.271E-01
  -8.386  0.258E-01  0.258E-01
  -8.371  0.244E-01  0.244E-01
  -8.356  0.232E-01  0.232E-01
  -8.341  0.220E-01  0.220E-01
  -8.326  0.209E-01  0.209E-01
  -8.311  0.199E-01  0.199E-01
  -8.296  0.189E-01  0.189E-01
  -8.281  0.180E-01  0.180E-01
  -8.266  0.172E-01  0.172E-01
  -8.251  0.165E-01  0.165E-01
  -8.236  0.159E-01  0.159E-01
  -8.221  0.153E-01  0.153E-01
  -8.206  0.149E-01  0.149E-01
  -8.191  0.145E-01  0.145E-01
  -8.176  0.141E-01  0.141E-01
  -8.161  0.138E-01  0.138E-01
  -8.146  0.136E-01  0.136E-01
  -8.131  0.134E-01  0.134E-01
  -8.116  0.133E-01  0.133E-01
  -8.101  0.132E-01  0.132E-01
  -8.086  0.131E-01  0.131E-01
  -8.071  0.131E-01  0.131E-01
  -8.056  0.130E-01  0.130E-01
  -8.041  0.130E-01  0.130E-01
  -8.026  0.130E-01  0.130E-01
  -8.011  0.129E-01  0.129E-01
  -7.996  0.129E-01  0.129E-01
  -7.981  0.128E-01  0.128E-01
  -7.966  0.128E-01  0.128E-01
  -7.951  0.127E-01  0.127E-01
  -7.936  0.126E-01  0.126E-01
  -7.921  0.124E-01  0.124E-01
  -7.906  0.123E-01  0.123E-01
  -7.891  0.121E-01  0.121E-01
  -7.876  0.119E-01  0.119E-01
  -7.861  0.117E-01  0.117E-01
  -7.846  0.115E-01  0.115E-01
  -7.831  0.113E-01  0.113E-01
  -7.816  0.110E-01  0.110E-01
  -7.801  0.107E-01  0.107E-01
  -7.786  0.104E-01  0.104E-01
  -7.771  0.101E-01  0.101E-01
  -7.756  0.985E-02  0.985E-02
  -7.741  0.955E-02  0.955E-02
  -7.726  0.924E-02  0.924E-02
  -7.711  0.894E-02  0.894E-02
  -7.696  0.863E-02  0.863E-02
  -7.681  0.833E-02  0.833E-02
  -7.666  0.804E-02  0.804E-02
  -7.651  0.775E-02  0.775E-02
  -7.636  0.748E-02  0.748E-02
  -7.621  0.721E-02  0.721E-02
  -7.606  0.696E-02  0.696E-02
  -7.591  0.672E-02  0.672E-02
  -7.576  0.649E-02  0.649E-02
  -7.561  0.628E-02  0.628E-02
  -7.546  0.608E-02  0.608E-02
  -7.531  0.590E-02  0.590E-02
  -7.516  0.573E-02  0.573E-02
  -7.501  0.558E-02  0.558E-02
  -7.486  0.544E-02  0.544E-02
  -7.471  0.532E-02  0.532E-02
  -7.456  0.521E-02  0.521E-02
  -7.441  0.511E-02  0.511E-02
  -7.426  0.503E-02  0.503E-02
  -7.411  0.496E-02  0.496E-02
  -7.396  0.490E-02  0.490E-02
  -7.381  0.485E-02  0.485E-02
  -7.366  0.480E-02  0.480E-02
  -7.351  0.477E-02  0.477E-02
  -7.336  0.474E-02  0.474E-02
  -7.321  0.472E-02  0.472E-02
  -7.306  0.470E-02  0.470E-02
  -7.291  0.469E-02  0.469E-02
  -7.276  0.468E-02  0.468E-02
  -7.261  0.468E-02  0.468E-02
  -7.246  0.468E-02  0.468E-02
  -7.231  0.468E-02  0.468E-02
  -7.216  0.469E-02  0.469E-02
  -7.201  0.470E-02  0.470E-02
  -7.186  0.471E-02  0.471E-02
  -7.171  0.473E-02  0.473E-02
  -7.156  0.475E-02  0.475E-02
  -7.141  0.477E-02  0.477E-02
  -7.126  0.480E-02  0.480E-02
  -7.111  0.483E-02  0.483E-02
  -7.096  0.487E-02  0.487E-02
  -7.081  0.491E-02  0.491E-02
  -7.066  0.496E-02  0.496E-02
  -7.051  0.502E-02  0.502E-02
  -7.036  0.508E-02  0.508E-02
  -7.021  0.515E-02  0.515E-02
  -7.006  0.524E-02  0.524E-02
  -6.991  0.533E-02  0.533E-02
  -6.976  0.543E-02  0.543E-02
  -6.961  0.554E-02  0.554E-02
  -6.946  0.566E-02  0.566E-02
  -6.931  0.579E-02  0.579E-02
  -6.916  0.593E-02  0.593E-02
  -6.901  0.608E-02  0.608E-02
  -6.886  0.623E-02  0.623E-02
  -6.871  0.640E-02  0.640E-02
  -6.856  0.656E-02  0.656E-02
  -6.841  0.672E-02  0.672E-02
  -6.826  0.689E-02  0.689E-02
  -6.811  0.705E-02  0.705E-02
  -6.796  0.721E-02  0.721E-02
  -6.781  0.735E-02  0.735E-02
  -6.766  0.749E-02  0.749E-02
  -6.751  0.761E-02  0.761E-02
  -6.736  0.771E-02  0.771E-02
  -6.721  0.779E-02  0.779E-02
  -6.706  0.785E-02  0.785E-02
  -6.691  0.788E-02  0.788E-02
  -6.676  0.788E-02  0.788E-02
  -6.661  0.786E-02  0.786E-02
  -6.646  0.781E-02  0.781E-02
  -6.631  0.773E-02  0.773E-02
  -6.616  0.761E-02  0.761E-02
  -6.601  0.747E-02  0.747E-02
  -6.586  0.731E-02  0.731E-02
  -6.571  0.712E-02  0.712E-02
  -6.556  0.690E-02  0.690E-02
  -6.541  0.666E-02  0.666E-02
  -6.526  0.641E-02  0.641E-02
  -6.511  0.614E-02  0.614E-02
  -6.496  0.586E-02  0.586E-02
  -6.481  0.557E-02  0.557E-02
  -6.466  0.528E-02  0.528E-02
  -6.451  0.498E-02  0.498E-02
  -6.436  0.469E-02  0.469E-02
  -6.421  0.440E-02  0.440E-02
  -6.406  0.411E-02  0.411E-02
  -6.391  0.384E-02  0.384E-02
  -6.376  0.358E-02  0.358E-02
  -6.361  0.333E-02  0.333E-02
  -6.346  0.310E-02  0.310E-02
  -6.331  0.288E-02  0.288E-02
  -6.316  0.268E-02  0.268E-02
  -6.301  0.250E-02  0.250E-02
  -6.286  0.233E-02  0.233E-02
  -6.271  0.218E-02  0.218E-02
  -6.256  0.205E-02  0.205E-02
  -6.241  0.193E-02  0.193E-02
  -6.226  0.183E-02  0.183E-02
  -6.211  0.174E-02  0.174E-02
  -6.196  0.166E-02  0.166E-02
  -6.181  0.160E-02  0.160E-02
  -6.166  0.154E-02  0.154E-02
  -6.151  0.150E-02  0.150E-02
  -6.136  0.147E-02  0.147E-02
  -6.121  0.144E-02  0.144E-02
  -6.106  0.142E-02  0.142E-02
  -6.091  0.141E-02  0.141E-02
  -6.076  0.140E-02  0.140E-02
  -6.061  0.140E-02  0.140E-02
  -6.046  0.140E-02  0.140E-02
  -6.031  0.140E-02  0.140E-02
  -6.016  0.141E-02  0.141E-02
  -6.001  0.142E-02  0.142E-02
  -5.986  0.143E-02  0.143E-02
  -5.971  0.144E-02  0.144E-02
  -5.956  0.146E-02  0.146E-02
  -5.941  0.148E-02  0.148E-02
  -5.926  0.149E-02  0.149E-02
  -5.911  0.151E-02  0.151E-02
  -5.896  0.153E-02  0.153E-02
  -5.881  0.155E-02  0.155E-02
  -5.866  0.157E-02  0.157E-02
  -5.851  0.159E-02  0.159E-02
  -5.836  0.160E-02  0.160E-02
  -5.821  0.162E-02  0.162E-02
  -5.806  0.164E-02  0.164E-02
  -5.791  0.165E-02  0.165E-02
  -5.776  0.167E-02  0.167E-02
  -5.761  0.168E-02  0.168E-02
  -5.746  0.169E-02  0.169E-02
  -5.731  0.170E-02  0.170E-02
  -5.716  0.170E-02  0.170E-02
  -5.701  0.170E-02  0.170E-02
  -5.686  0.170E-02  0.170E-02
  -5.671  0.169E-02  0.169E-02
  -5.656  0.168E-02  0.168E-02
  -5.641  0.167E-02  0.167E-02
  -5.626  0.165E-02  0.165E-02
  -5.611  0.163E-02  0.163E-02
  -5.596  0.161E-02  0.161E-02
  -5.581  0.158E-02  0.158E-02
  -5.566  0.155E-02  0.155E-02
  -5.551  0.151E-02  0.151E-02
  -5.536  0.147E-02  0.147E-02
  -5.521  0.143E-02  0.143E-02
  -5.506  0.139E-02  0.139E-02
  -5.491  0.134E-02  0.134E-02
  -5.476  0.130E-02  0.130E-02
  -5.461  0.125E-02  0.125E-02
  -5.446  0.120E-02  0.120E-02
  -5.431  0.115E-02  0.115E-02
  -5.416  0.110E-02  0.110E-02
  -5.401  0.105E-02  0.105E-02
  -5.386  0.100E-02  0.100E-02
  -5.371  0.957E-03  0.957E-03
  -5.356  0.911E-03  0.911E-03
  -5.341  0.866E-03  0.866E-03
  -5.326  0.822E-03  0.822E-03
  -5.311  0.780E-03  0.780E-03
  -5.296  0.741E-03  0.741E-03
  -5.281  0.703E-03  0.703E-03
  -5.266  0.667E-03  0.667E-03
  -5.251  0.633E-03  0.633E-03
  -5.236  0.602E-03  0.602E-03
  -5.221  0.572E-03  0.572E-03
  -5.206  0.544E-03  0.544E-03
  -5.191  0.518E-03  0.518E-03
  -5.176  0.494E-03  0.494E-03
  -5.161  0.472E-03  0.472E-03
  -5.146  0.451E-03  0.451E-03
  -5.131  0.432E-03  0.432E-03
  -5.116  0.414E-03  0.414E-03
  -5.101  0.398E-03  0.398E-03
  -5.086  0.382E-03  0.382E-03
  -5.071  0.368E-03  0.368E-03
  -5.056  0.355E-03  0.355E-03
  -5.041  0.342E-03  0.342E-03
  -5.026  0.330E-03  0.330E-03
  -5.011  0.319E-03  0.319E-03
  -4.996  0.309E-03  0.309E-03
  -4.981  0.299E-03  0.299E-03
  -4.966  0.290E-03  0.290E-03
  -4.951  0.281E-03  0.281E-03
  -4.936  0.273E-03  0.273E-03
  -4.921  0.264E-03  0.264E-03
  -4.906  0.256E-03  0.256E-03
  -4.891  0.249E-03  0.249E-03
  -4.876  0.241E-03  0.241E-03
  -4.861  0.234E-03  0.234E-03
  -4.846  0.226E-03  0.226E-03
  -4.831  0.219E-03  0.219E-03
  -4.816  0.211E-03  0.211E-03
  -4.801  0.204E-03  0.204E-03
  -4.786  0.197E-03  0.197E-03
  -4.771  0.189E-03  0.189E-03
  -4.756  0.182E-03  0.182E-03
  -4.741  0.174E-03  0.174E-03
  -4.726  0.167E-03  0.167E-03
  -4.711  0.159E-03  0.159E-03
  -4.696  0.151E-03  0.151E-03
  -4.681  0.144E-03  0.144E-03
  -4.666  0.136E-03  0.136E-03
  -4.651  0.129E-03  0.129E-03
  -4.636  0.121E-03  0.121E-03
  -4.621  0.114E-03  0.114E-03
  -4.606  0.107E-03  0.107E-03
  -4.591  0.995E-04  0.995E-04
  -4.576  0.926E-04  0.926E-04
  -4.561  0.859E-04  0.859E-04
  -4.546  0.794E-04  0.794E-04
  -4.531  0.731E-04  0.731E-04
  -4.516  0.671E-04  0.671E-04
  -4.501  0.614E-04  0.614E-04
  -4.486  0.559E-04  0.559E-04
  -4.471  0.508E-04  0.508E-04
  -4.456  0.459E-04  0.459E-04
  -4.441  0.414E-04  0.414E-04
  -4.426  0.371E-04  0.371E-04
  -4.411  0.332E-04  0.332E-04
  -4.396  0.295E-04  0.295E-04
  -4.381  0.262E-04  0.262E-04
  -4.366  0.231E-04  0.231E-04
  -4.351  0.204E-04  0.204E-04
  -4.336  0.178E-04  0.178E-04
  -4.321  0.155E-04  0.155E-04
  -4.306  0.135E-04  0.135E-04
  -4.291  0.117E-04  0.117E-04
  -4.276  0.100E-04  0.100E-04
  -4.261  0.860E-05  0.860E-05
  -4.246  0.734E-05  0.734E-05
  -4.231  0.623E-05  0.623E-05
  -4.216  0.526E-05  0.526E-05
  -4.201  0.443E-05  0.443E-05
  -4.186  0.371E-05  0.371E-05
  -4.171  0.309E-05  0.309E-05
  -4.156  0.256E-05  0.256E-05
  -4.141  0.211E-05  0.211E-05
  -4.126  0.173E-05  0.173E-05
  -4.111  0.142E-05  0.142E-05
  -4.096  0.115E-05  0.115E-05
  -4.081  0.931E-06  0.931E-06
  -4.066  0.749E-06  0.749E-06
  -4.051  0.599E-06  0.599E-06
  -4.036  0.477E-06  0.477E-06
  -4.021  0.378E-06  0.378E-06
  -4.006  0.298E-06  0.298E-06
  -3.991  0.234E-06  0.234E-06
  -3.976  0.182E-06  0.182E-06
  -3.961  0.141E-06  0.141E-06
  -3.946  0.109E-06  0.109E-06
  -3.931  0.836E-07  0.836E-07
  -3.916  0.638E-07  0.638E-07
  -3.901  0.484E-07  0.484E-07
  -3.886  0.366E-07  0.366E-07
  -3.871  0.275E-07  0.275E-07
  -3.856  0.205E-07  0.205E-07
  -3.841  0.152E-07  0.152E-07
  -3.826  0.112E-07  0.112E-07
  -3.811  0.826E-08  0.826E-08
  -3.796  0.603E-08  0.603E-08
  -3.781  0.438E-08  0.438E-08
  -3.766  0.317E-08  0.317E-08
  -3.751  0.227E-08  0.227E-08
  -3.736  0.162E-08  0.162E-08
  -3.721  0.115E-08  0.115E-08
  -3.706  0.814E-09  0.814E-09
  -3.691  0.572E-09  0.572E-09
  -3.676  0.399E-09  0.399E-09
  -3.661  0.277E-09  0.277E-09
  -3.646  0.191E-09  0.191E-09
  -3.631  0.131E-09  0.131E-09
  -3.616  0.897E-10  0.897E-10
  -3.601  0.608E-10  0.608E-10
  -3.586  0.411E-10  0.411E-10
  -3.571  0.275E-10  0.275E-10
  -3.556  0.184E-10  0.184E-10
  -3.541  0.122E-10  0.122E-10
  -3.526  0.803E-11  0.803E-11
  -3.511  0.527E-11  0.527E-11
  -3.496  0.343E-11  0.343E-11
  -3.481  0.223E-11  0.223E-11
  -3.466  0.143E-11  0.143E-11
  -3.451  0.918E-12  0.918E-12
  -3.436  0.585E-12  0.585E-12
  -3.421  0.370E-12  0.370E-12
  -3.406  0.233E-12  0.233E-12
  -3.391  0.146E-12  0.146E-12
  -3.376  0.907E-13  0.907E-13
  -3.361  0.561E-13  0.561E-13
  -3.346  0.345E-13  0.345E-13
  -3.331  0.211E-13  0.211E-13
  -3.316  0.128E-13  0.128E-13
  -3.301  0.773E-14  0.773E-14
  -3.286  0.461E-14  0.461E-14
  -3.271  0.265E-14  0.265E-14
  -3.256  0.157E-14  0.157E-14
  -3.241  0.916E-15  0.916E-15
  -3.226  0.530E-15  0.530E-15
  -3.211  0.310E-15  0.310E-15
  -3.196  0.181E-15  0.181E-15
  -3.181  0.528E-16  0.528E-16
  -3.166  0.283E-16  0.283E-16
  -3.151  0.150E-16  0.150E-16
  -3.136  0.211E-17  0.211E-17
  -3.121  0.000E+00  0.000E+00
  -3.106  0.000E+00  0.000E+00
  -3.091  0.000E+00  0.000E+00
  -3.076  0.000E+00  0.000E+00
  -3.061  0.000E+00  0.000E+00
  -3.046  0.000E+00  0.000E+00
  -3.031  0.000E+00  0.000E+00
  -3.016  0.000E+00  0.000E+00
  -3.001  0.000E+00  0.000E+00
  -2.986  0.000E+00  0.000E+00
  -2.971  0.000E+00  0.000E+00
  -2.956  0.000E+00  0.000E+00
  -2.941  0.000E+00  0.000E+00
  -2.926  0.000E+00  0.000E+00
  -2.911  0.000E+00  0.000E+00
  -2.896  0.000E+00  0.000E+00
  -2.881  0.000E+00  0.000E+00
  -2.866  0.000E+00  0.000E+00
  -2.851  0.000E+00  0.000E+00
  -2.836  0.000E+00  0.000E+00
  -2.821  0.000E+00  0.000E+00
  -2.806  0.000E+00  0.000E+00
  -2.791  0.000E+00  0.000E+00
  -2.776  0.000E+00  0.000E+00
  -2.761  0.000E+00  0.000E+00
  -2.746  0.000E+00  0.000E+00
  -2.731  0.000E+00  0.000E+00
  -2.716  0.000E+00  0.000E+00
  -2.701  0.000E+00  0.000E+00
  -2.686  0.000E+00  0.000E+00
  -2.671  0.000E+00  0.000E+00
  -2.656  0.000E+00  0.000E+00
  -2.641  0.000E+00  0.000E+00
  -2.626  0.000E+00  0.000E+00
  -2.611  0.000E+00  0.000E+00
  -2.596  0.000E+00  0.000E+00
  -2.581  0.000E+00  0.000E+00
  -2.566  0.000E+00  0.000E+00
  -2.551  0.000E+00  0.000E+00
  -2.536  0.000E+00  0.000E+00
  -2.521  0.000E+00  0.000E+00
  -2.506  0.000E+00  0.000E+00
  -2.491  0.000E+00  0.000E+00
  -2.476  0.000E+00  0.000E+00
  -2.461  0.000E+00  0.000E+00
  -2.446  0.000E+00  0.000E+00
  -2.431  0.000E+00  0.000E+00
  -2.416  0.000E+00  0.000E+00
  -2.401  0.000E+00  0.000E+00
  -2.386  0.000E+00  0.000E+00
  -2.371  0.000E+00  0.000E+00
  -2.356  0.000E+00  0.000E+00
  -2.341  0.000E+00  0.000E+00
  -2.326  0.000E+00  0.000E+00
  -2.311  0.000E+00  0.000E+00
  -2.296  0.000E+00  0.000E+00
  -2.281  0.000E+00  0.000E+00
  -2.266  0.000E+00  0.000E+00
  -2.251  0.000E+00  0.000E+00
  -2.236  0.000E+00  0.000E+00
  -2.221  0.000E+00  0.000E+00
  -2.206  0.000E+00  0.000E+00
  -2.191  0.000E+00  0.000E+00
  -2.176  0.000E+00  0.000E+00
  -2.161  0.000E+00  0.000E+00
  -2.146  0.000E+00  0.000E+00
  -2.131  0.000E+00  0.000E+00
  -2.116  0.000E+00  0.000E+00
  -2.101  0.000E+00  0.000E+00
  -2.086  0.000E+00  0.000E+00
  -2.071  0.000E+00  0.000E+00
  -2.056  0.000E+00  0.000E+00
  -2.041  0.000E+00  0.000E+00
  -2.026  0.000E+00  0.000E+00
  -2.011  0.000E+00  0.000E+00
  -1.996  0.000E+00  0.000E+00
  -1.981  0.000E+00  0.000E+00
  -1.966  0.000E+00  0.000E+00
  -1.951  0.000E+00  0.000E+00
  -1.936  0.000E+00  0.000E+00
  -1.921  0.000E+00  0.000E+00
  -1.906  0.000E+00  0.000E+00
  -1.891  0.000E+00  0.000E+00
  -1.876  0.000E+00  0.000E+00
  -1.861  0.000E+00  0.000E+00
  -1.846  0.000E+00  0.000E+00
  -1.831  0.000E+00  0.000E+00
  -1.816  0.000E+00  0.000E+00
  -1.801  0.000E+00  0.000E+00
  -1.786  0.000E+00  0.000E+00
  -1.771  0.000E+00  0.000E+00
  -1.756  0.000E+00  0.000E+00
  -1.741  0.000E+00  0.000E+00
  -1.726  0.000E+00  0.000E+00
  -1.711  0.000E+00  0.000E+00
  -1.696  0.000E+00  0.000E+00
  -1.681  0.000E+00  0.000E+00
  -1.666  0.000E+00  0.000E+00
  -1.651  0.000E+00  0.000E+00
  -1.636  0.000E+00  0.000E+00
  -1.621  0.000E+00  0.000E+00
  -1.606  0.000E+00  0.000E+00
  -1.591  0.000E+00  0.000E+00
  -1.576  0.000E+00  0.000E+00
  -1.561  0.000E+00  0.000E+00
  -1.546  0.000E+00  0.000E+00
  -1.531  0.000E+00  0.000E+00
  -1.516  0.000E+00  0.000E+00
  -1.501  0.000E+00  0.000E+00
  -1.486  0.000E+00  0.000E+00
  -1.471  0.000E+00  0.000E+00
  -1.456  0.000E+00  0.000E+00
  -1.441  0.000E+00  0.000E+00
  -1.426  0.000E+00  0.000E+00
  -1.411  0.000E+00  0.000E+00
  -1.396  0.000E+00  0.000E+00
  -1.381  0.000E+00  0.000E+00
  -1.366  0.000E+00  0.000E+00
  -1.351  0.000E+00  0.000E+00
  -1.336  0.000E+00  0.000E+00
  -1.321  0.000E+00  0.000E+00
  -1.306  0.000E+00  0.000E+00
  -1.291  0.000E+00  0.000E+00
  -1.276  0.000E+00  0.000E+00
  -1.261  0.000E+00  0.000E+00
  -1.246  0.000E+00  0.000E+00
  -1.231  0.000E+00  0.000E+00
  -1.216  0.000E+00  0.000E+00
  -1.201  0.000E+00  0.000E+00
  -1.186  0.000E+00  0.000E+00
  -1.171  0.000E+00  0.000E+00
  -1.156  0.000E+00  0.000E+00
  -1.141  0.000E+00  0.000E+00
  -1.126  0.000E+00  0.000E+00
  -1.111  0.000E+00  0.000E+00
  -1.096  0.000E+00  0.000E+00
  -1.081  0.000E+00  0.000E+00
  -1.066  0.000E+00  0.000E+00
  -1.051  0.000E+00  0.000E+00
  -1.036  0.000E+00  0.000E+00
  -1.021  0.000E+00  0.000E+00
  -1.006  0.000E+00  0.000E+00
  -0.991  0.000E+00  0.000E+00
  -0.976  0.000E+00  0.000E+00
  -0.961  0.000E+00  0.000E+00
  -0.946  0.000E+00  0.000E+00
  -0.931  0.000E+00  0.000E+00
  -0.916  0.000E+00  0.000E+00
  -0.901  0.000E+00  0.000E+00
  -0.886  0.000E+00  0.000E+00
  -0.871  0.000E+00  0.000E+00
  -0.856  0.000E+00  0.000E+00
  -0.841  0.000E+00  0.000E+00
  -0.826  0.000E+00  0.000E+00
  -0.811  0.000E+00  0.000E+00
  -0.796  0.000E+00  0.000E+00
  -0.781  0.000E+00  0.000E+00
  -0.766  0.000E+00  0.000E+00
  -0.751  0.000E+00  0.000E+00
  -0.736  0.000E+00  0.000E+00
  -0.721  0.000E+00  0.000E+00
  -0.706  0.000E+00  0.000E+00
  -0.691  0.000E+00  0.000E+00
  -0.676  0.000E+00  0.000E+00
  -0.661  0.000E+00  0.000E+00
  -0.646  0.000E+00  0.000E+00
  -0.631  0.000E+00  0.000E+00
  -0.616  0.000E+00  0.000E+00
  -0.601  0.226E-13  0.226E-13
  -0.586  0.518E-13  0.518E-13
  -0.571  0.992E-13  0.992E-13
  -0.556  0.171E-12  0.171E-12
  -0.541  0.306E-12  0.306E-12
  -0.526  0.520E-12  0.520E-12
  -0.511  0.880E-12  0.880E-12
  -0.496  0.149E-11  0.149E-11
  -0.481  0.249E-11  0.249E-11
  -0.466  0.414E-11  0.414E-11
  -0.451  0.683E-11  0.683E-11
  -0.436  0.112E-10  0.112E-10
  -0.421  0.183E-10  0.183E-10
  -0.406  0.297E-10  0.297E-10
  -0.391  0.478E-10  0.478E-10
  -0.376  0.766E-10  0.766E-10
  -0.361  0.122E-09  0.122E-09
  -0.346  0.193E-09  0.193E-09
  -0.331  0.303E-09  0.303E-09
  -0.316  0.474E-09  0.474E-09
  -0.301  0.737E-09  0.737E-09
  -0.286  0.114E-08  0.114E-08
  -0.271  0.175E-08  0.175E-08
  -0.256  0.267E-08  0.267E-08
  -0.241  0.405E-08  0.405E-08
  -0.226  0.611E-08  0.611E-08
  -0.211  0.916E-08  0.916E-08
  -0.196  0.137E-07  0.137E-07
  -0.181  0.202E-07  0.202E-07
  -0.166  0.298E-07  0.298E-07
  -0.151  0.436E-07  0.436E-07
  -0.136  0.634E-07  0.634E-07
  -0.121  0.917E-07  0.917E-07
  -0.106  0.132E-06  0.132E-06
  -0.091  0.188E-06  0.188E-06
  -0.076  0.268E-06  0.268E-06
  -0.061  0.378E-06  0.378E-06
  -0.046  0.531E-06  0.531E-06
  -0.031  0.740E-06  0.740E-06
  -0.016  0.103E-05  0.103E-05
  -0.001  0.142E-05  0.142E-05
   0.014  0.194E-05  0.194E-05
   0.029  0.264E-05  0.264E-05
   0.044  0.358E-05  0.358E-05
   0.059  0.482E-05  0.482E-05
   0.074  0.645E-05  0.645E-05
   0.089  0.858E-05  0.858E-05
   0.104  0.113E-04  0.113E-04
   0.119  0.149E-04  0.149E-04
   0.134  0.195E-04  0.195E-04
   0.149  0.253E-04  0.253E-04
   0.164  0.327E-04  0.327E-04
   0.179  0.420E-04  0.420E-04
   0.194  0.536E-04  0.536E-04
   0.209  0.681E-04  0.681E-04
   0.224  0.859E-04  0.859E-04
   0.239  0.108E-03  0.108E-03
   0.254  0.134E-03  0.134E-03
   0.269  0.166E-03  0.166E-03
   0.284  0.205E-03  0.205E-03
   0.299  0.251E-03  0.251E-03
   0.314  0.306E-03  0.306E-03
   0.329  0.371E-03  0.371E-03
   0.344  0.446E-03  0.446E-03
   0.359  0.534E-03  0.534E-03
   0.374  0.636E-03  0.636E-03
   0.389  0.753E-03  0.753E-03
   0.404  0.886E-03  0.886E-03
   0.419  0.104E-02  0.104E-02
   0.434  0.121E-02  0.121E-02
   0.449  0.139E-02  0.139E-02
   0.464  0.160E-02  0.160E-02
   0.479  0.184E-02  0.184E-02
   0.494  0.209E-02  0.209E-02
   0.509  0.236E-02  0.236E-02
   0.524  0.266E-02  0.266E-02
   0.539  0.297E-02  0.297E-02
   0.554  0.331E-02  0.331E-02
   0.569  0.366E-02  0.366E-02
   0.584  0.403E-02  0.403E-02
   0.599  0.442E-02  0.442E-02
   0.614  0.481E-02  0.481E-02
   0.629  0.521E-02  0.521E-02
   0.644  0.562E-02  0.562E-02
   0.659  0.603E-02  0.603E-02
   0.674  0.643E-02  0.643E-02
   0.689  0.683E-02  0.683E-02
   0.704  0.722E-02  0.722E-02
   0.719  0.760E-02  0.760E-02
   0.734  0.796E-02  0.796E-02
   0.749  0.829E-02  0.829E-02
   0.764  0.861E-02  0.861E-02
   0.779  0.889E-02  0.889E-02
   0.794  0.915E-02  0.915E-02
   0.809  0.939E-02  0.939E-02
   0.824  0.959E-02  0.959E-02
   0.839  0.976E-02  0.976E-02
   0.854  0.990E-02  0.990E-02
   0.869  0.100E-01  0.100E-01
   0.884  0.101E-01  0.101E-01
   0.899  0.101E-01  0.101E-01
   0.914  0.102E-01  0.102E-01
   0.929  0.102E-01  0.102E-01
   0.944  0.102E-01  0.102E-01
   0.959  0.102E-01  0.102E-01
   0.974  0.101E-01  0.101E-01
   0.989  0.101E-01  0.101E-01
   1.004  0.100E-01  0.100E-01
   1.019  0.100E-01  0.100E-01
   1.034  0.996E-02  0.996E-02
   1.049  0.992E-02  0.992E-02
   1.064  0.989E-02  0.989E-02
   1.079  0.987E-02  0.987E-02
   1.094  0.985E-02  0.985E-02
   1.109  0.986E-02  0.986E-02
   1.124  0.987E-02  0.987E-02
   1.139  0.990E-02  0.990E-02
   1.154  0.995E-02  0.995E-02
   1.169  0.100E-01  0.100E-01
   1.184  0.101E-01  0.101E-01
   1.199  0.102E-01  0.102E-01
   1.214  0.103E-01  0.103E-01
   1.229  0.104E-01  0.104E-01
   1.244  0.105E-01  0.105E-01
   1.259  0.107E-01  0.107E-01
   1.274  0.109E-01  0.109E-01
   1.289  0.110E-01  0.110E-01
   1.304  0.112E-01  0.112E-01
   1.319  0.114E-01  0.114E-01
   1.334  0.116E-01  0.116E-01
   1.349  0.118E-01  0.118E-01
   1.364  0.120E-01  0.120E-01
   1.379  0.122E-01  0.122E-01
   1.394  0.124E-01  0.124E-01
   1.409  0.126E-01  0.126E-01
   1.424  0.128E-01  0.128E-01
   1.439  0.131E-01  0.131E-01
   1.454  0.133E-01  0.133E-01
   1.469  0.135E-01  0.135E-01
   1.484  0.138E-01  0.138E-01
   1.499  0.140E-01  0.140E-01
   1.514  0.143E-01  0.143E-01
   1.529  0.145E-01  0.145E-01
   1.544  0.147E-01  0.147E-01
   1.559  0.150E-01  0.150E-01
   1.574  0.152E-01  0.152E-01
   1.589  0.155E-01  0.155E-01
   1.604  0.157E-01  0.157E-01
   1.619  0.159E-01  0.159E-01
   1.634  0.162E-01  0.162E-01
   1.649  0.164E-01  0.164E-01
   1.664  0.166E-01  0.166E-01
   1.679  0.168E-01  0.168E-01
   1.694  0.170E-01  0.170E-01
   1.709  0.172E-01  0.172E-01
   1.724  0.174E-01  0.174E-01
   1.739  0.176E-01  0.176E-01
   1.754  0.178E-01  0.178E-01
   1.769  0.180E-01  0.180E-01
   1.784  0.182E-01  0.182E-01
   1.799  0.184E-01  0.184E-01
   1.814  0.186E-01  0.186E-01
   1.829  0.188E-01  0.188E-01
   1.844  0.190E-01  0.190E-01
   1.859  0.192E-01  0.192E-01
   1.874  0.195E-01  0.195E-01
   1.889  0.198E-01  0.198E-01
   1.904  0.201E-01  0.201E-01
   1.919  0.204E-01  0.204E-01
   1.934  0.207E-01  0.207E-01
   1.949  0.211E-01  0.211E-01
   1.964  0.215E-01  0.215E-01
   1.979  0.219E-01  0.219E-01
   1.994  0.223E-01  0.223E-01
   2.009  0.227E-01  0.227E-01
   2.024  0.231E-01  0.231E-01
   2.039  0.236E-01  0.236E-01
   2.054  0.240E-01  0.240E-01
   2.069  0.244E-01  0.244E-01
   2.084  0.248E-01  0.248E-01
   2.099  0.252E-01  0.252E-01
   2.114  0.255E-01  0.255E-01
   2.129  0.258E-01  0.258E-01
   2.144  0.261E-01  0.261E-01
   2.159  0.263E-01  0.263E-01
   2.174  0.264E-01  0.264E-01
   2.189  0.265E-01  0.265E-01
   2.204  0.266E-01  0.266E-01
   2.219  0.266E-01  0.266E-01
   2.234  0.265E-01  0.265E-01
   2.249  0.264E-01  0.264E-01
   2.264  0.262E-01  0.262E-01
   2.279  0.259E-01  0.259E-01
   2.294  0.257E-01  0.257E-01
   2.309  0.253E-01  0.253E-01
   2.324  0.250E-01  0.250E-01
   2.339  0.246E-01  0.246E-01
   2.354  0.241E-01  0.241E-01
   2.369  0.237E-01  0.237E-01
   2.384  0.232E-01  0.232E-01
   2.399  0.228E-01  0.228E-01
   2.414  0.223E-01  0.223E-01
   2.429  0.218E-01  0.218E-01
   2.444  0.214E-01  0.214E-01
   2.459  0.209E-01  0.209E-01
   2.474  0.205E-01  0.205E-01
   2.489  0.201E-01  0.201E-01
   2.504  0.197E-01  0.197E-01
   2.519  0.193E-01  0.193E-01
   2.534  0.189E-01  0.189E-01
   2.549  0.186E-01  0.186E-01
   2.564  0.182E-01  0.182E-01
   2.579  0.179E-01  0.179E-01
   2.594  0.175E-01  0.175E-01
   2.609  0.172E-01  0.172E-01
   2.624  0.169E-01  0.169E-01
   2.639  0.166E-01  0.166E-01
   2.654  0.163E-01  0.163E-01
   2.669  0.160E-01  0.160E-01
   2.684  0.157E-01  0.157E-01
   2.699  0.154E-01  0.154E-01
   2.714  0.151E-01  0.151E-01
   2.729  0.148E-01  0.148E-01
   2.744  0.145E-01  0.145E-01
   2.759  0.142E-01  0.142E-01
   2.774  0.139E-01  0.139E-01
   2.789  0.136E-01  0.136E-01
   2.804  0.134E-01  0.134E-01
   2.819  0.131E-01  0.131E-01
   2.834  0.129E-01  0.129E-01
   2.849  0.127E-01  0.127E-01
   2.864  0.125E-01  0.125E-01
   2.879  0.123E-01  0.123E-01
   2.894  0.122E-01  0.122E-01
   2.909  0.120E-01  0.120E-01
   2.924  0.119E-01  0.119E-01
   2.939  0.118E-01  0.118E-01
   2.954  0.118E-01  0.118E-01
   2.969  0.117E-01  0.117E-01
   2.984  0.117E-01  0.117E-01
   2.999  0.117E-01  0.117E-01
   3.014  0.117E-01  0.117E-01
   3.029  0.118E-01  0.118E-01
   3.044  0.118E-01  0.118E-01
   3.059  0.119E-01  0.119E-01
   3.074  0.119E-01  0.119E-01
   3.089  0.120E-01  0.120E-01
   3.104  0.121E-01  0.121E-01
   3.119  0.122E-01  0.122E-01
   3.134  0.123E-01  0.123E-01
   3.149  0.124E-01  0.124E-01
   3.164  0.125E-01  0.125E-01
   3.179  0.127E-01  0.127E-01
   3.194  0.128E-01  0.128E-01
   3.209  0.129E-01  0.129E-01
   3.224  0.130E-01  0.130E-01
   3.239  0.132E-01  0.132E-01
   3.254  0.133E-01  0.133E-01
   3.269  0.134E-01  0.134E-01
   3.284  0.136E-01  0.136E-01
   3.299  0.137E-01  0.137E-01
   3.314  0.139E-01  0.139E-01
   3.329  0.141E-01  0.141E-01
   3.344  0.143E-01  0.143E-01
   3.359  0.144E-01  0.144E-01
   3.374  0.146E-01  0.146E-01
   3.389  0.148E-01  0.148E-01
   3.404  0.151E-01  0.151E-01
   3.419  0.153E-01  0.153E-01
   3.434  0.155E-01  0.155E-01
   3.449  0.157E-01  0.157E-01
   3.464  0.159E-01  0.159E-01
   3.479  0.162E-01  0.162E-01
   3.494  0.164E-01  0.164E-01
   3.509  0.166E-01  0.166E-01
   3.524  0.168E-01  0.168E-01
   3.539  0.171E-01  0.171E-01
   3.554  0.173E-01  0.173E-01
   3.569  0.175E-01  0.175E-01
   3.584  0.177E-01  0.177E-01
   3.599  0.178E-01  0.178E-01
   3.614  0.180E-01  0.180E-01
   3.629  0.182E-01  0.182E-01
   3.644  0.183E-01  0.183E-01
   3.659  0.185E-01  0.185E-01
   3.674  0.187E-01  0.187E-01
   3.689  0.188E-01  0.188E-01
   3.704  0.189E-01  0.189E-01
   3.719  0.191E-01  0.191E-01
   3.734  0.193E-01  0.193E-01
   3.749  0.194E-01  0.194E-01
   3.764  0.196E-01  0.196E-01
   3.779  0.198E-01  0.198E-01
   3.794  0.200E-01  0.200E-01
   3.809  0.202E-01  0.202E-01
   3.824  0.204E-01  0.204E-01
   3.839  0.207E-01  0.207E-01
   3.854  0.210E-01  0.210E-01
   3.869  0.212E-01  0.212E-01
   3.884  0.216E-01  0.216E-01
   3.899  0.219E-01  0.219E-01
   3.914  0.223E-01  0.223E-01
   3.929  0.227E-01  0.227E-01
   3.944  0.231E-01  0.231E-01
   3.959  0.235E-01  0.235E-01
   3.974  0.240E-01  0.240E-01
   3.989  0.244E-01  0.244E-01
   4.004  0.249E-01  0.249E-01
   4.019  0.254E-01  0.254E-01
   4.034  0.260E-01  0.260E-01
   4.049  0.265E-01  0.265E-01
   4.064  0.271E-01  0.271E-01
   4.079  0.277E-01  0.277E-01
   4.094  0.283E-01  0.283E-01
   4.109  0.289E-01  0.289E-01
   4.124  0.295E-01  0.295E-01
   4.139  0.302E-01  0.302E-01
   4.154  0.308E-01  0.308E-01
   4.169  0.315E-01  0.315E-01
   4.184  0.322E-01  0.322E-01
   4.199  0.329E-01  0.329E-01
   4.214  0.336E-01  0.336E-01
   4.229  0.343E-01  0.343E-01
   4.244  0.351E-01  0.351E-01
   4.259  0.358E-01  0.358E-01
   4.274  0.366E-01  0.366E-01
   4.289  0.373E-01  0.373E-01
   4.304  0.381E-01  0.381E-01
   4.319  0.389E-01  0.389E-01
   4.334  0.397E-01  0.397E-01
   4.349  0.405E-01  0.405E-01
   4.364  0.412E-01  0.412E-01
   4.379  0.420E-01  0.420E-01
   4.394  0.428E-01  0.428E-01
   4.409  0.436E-01  0.436E-01
   4.424  0.444E-01  0.444E-01
   4.439  0.451E-01  0.451E-01
   4.454  0.459E-01  0.459E-01
   4.469  0.467E-01  0.467E-01
   4.484  0.474E-01  0.474E-01
   4.499  0.481E-01  0.481E-01
   4.514  0.489E-01  0.489E-01
   4.529  0.496E-01  0.496E-01
   4.544  0.503E-01  0.503E-01
   4.559  0.510E-01  0.510E-01
   4.574  0.517E-01  0.517E-01
   4.589  0.524E-01  0.524E-01
   4.604  0.530E-01  0.530E-01
   4.619  0.537E-01  0.537E-01
   4.634  0.543E-01  0.543E-01
   4.649  0.550E-01  0.550E-01
   4.664  0.556E-01  0.556E-01
   4.679  0.562E-01  0.562E-01
   4.694  0.568E-01  0.568E-01
   4.709  0.574E-01  0.574E-01
   4.724  0.580E-01  0.580E-01
   4.739  0.586E-01  0.586E-01
   4.754  0.591E-01  0.591E-01
   4.769  0.597E-01  0.597E-01
   4.784  0.602E-01  0.602E-01
   4.799  0.607E-01  0.607E-01
   4.814  0.612E-01  0.612E-01
   4.829  0.617E-01  0.617E-01
   4.844  0.622E-01  0.622E-01
   4.859  0.626E-01  0.626E-01
   4.874  0.630E-01  0.630E-01
   4.889  0.635E-01  0.635E-01
   4.904  0.638E-01  0.638E-01
   4.919  0.642E-01  0.642E-01
   4.934  0.645E-01  0.645E-01
   4.949  0.648E-01  0.648E-01
   4.964  0.650E-01  0.650E-01
   4.979  0.652E-01  0.652E-01
   4.994  0.654E-01  0.654E-01
   5.009  0.654E-01  0.654E-01
   5.024  0.655E-01  0.655E-01
   5.039  0.654E-01  0.654E-01
   5.054  0.653E-01  0.653E-01
   5.069  0.651E-01  0.651E-01
   5.084  0.649E-01  0.649E-01
   5.099  0.645E-01  0.645E-01
   5.114  0.641E-01  0.641E-01
   5.129  0.636E-01  0.636E-01
   5.144  0.630E-01  0.630E-01
   5.159  0.623E-01  0.623E-01
   5.174  0.615E-01  0.615E-01
   5.189  0.606E-01  0.606E-01
   5.204  0.597E-01  0.597E-01
   5.219  0.586E-01  0.586E-01
   5.234  0.575E-01  0.575E-01
   5.249  0.563E-01  0.563E-01
   5.264  0.550E-01  0.550E-01
   5.279  0.537E-01  0.537E-01
   5.294  0.523E-01  0.523E-01
   5.309  0.509E-01  0.509E-01
   5.324  0.494E-01  0.494E-01
   5.339  0.479E-01  0.479E-01
   5.354  0.464E-01  0.464E-01
   5.369  0.449E-01  0.449E-01
   5.384  0.433E-01  0.433E-01
   5.399  0.418E-01  0.418E-01
   5.414  0.402E-01  0.402E-01
   5.429  0.387E-01  0.387E-01
   5.444  0.372E-01  0.372E-01
   5.459  0.357E-01  0.357E-01
   5.474  0.343E-01  0.343E-01
   5.489  0.329E-01  0.329E-01
   5.504  0.315E-01  0.315E-01
   5.519  0.302E-01  0.302E-01
   5.534  0.289E-01  0.289E-01
   5.549  0.277E-01  0.277E-01
   5.564  0.265E-01  0.265E-01
   5.579  0.253E-01  0.253E-01
   5.594  0.242E-01  0.242E-01
   5.609  0.232E-01  0.232E-01
   5.624  0.222E-01  0.222E-01
   5.639  0.212E-01  0.212E-01
   5.654  0.203E-01  0.203E-01
   5.669  0.195E-01  0.195E-01
   5.684  0.186E-01  0.186E-01
   5.699  0.178E-01  0.178E-01
   5.714  0.171E-01  0.171E-01
   5.729  0.164E-01  0.164E-01
   5.744  0.157E-01  0.157E-01
   5.759  0.151E-01  0.151E-01
   5.774  0.145E-01  0.145E-01
   5.789  0.139E-01  0.139E-01
   5.804  0.134E-01  0.134E-01
   5.819  0.129E-01  0.129E-01
   5.834  0.124E-01  0.124E-01
   5.849  0.120E-01  0.120E-01
   5.864  0.115E-01  0.115E-01
   5.879  0.111E-01  0.111E-01
   5.894  0.107E-01  0.107E-01
   5.909  0.104E-01  0.104E-01
   5.924  0.100E-01  0.100E-01
   5.939  0.971E-02  0.971E-02
   5.954  0.941E-02  0.941E-02
   5.969  0.912E-02  0.912E-02
   5.984  0.885E-02  0.885E-02
   5.999  0.860E-02  0.860E-02
   6.014  0.836E-02  0.836E-02
   6.029  0.813E-02  0.813E-02
   6.044  0.792E-02  0.792E-02
   6.059  0.772E-02  0.772E-02
   6.074  0.753E-02  0.753E-02
   6.089  0.735E-02  0.735E-02
   6.104  0.718E-02  0.718E-02
   6.119  0.702E-02  0.702E-02
   6.134  0.687E-02  0.687E-02
   6.149  0.673E-02  0.673E-02
   6.164  0.660E-02  0.660E-02
   6.179  0.648E-02  0.648E-02
   6.194  0.637E-02  0.637E-02
   6.209  0.626E-02  0.626E-02
   6.224  0.616E-02  0.616E-02
   6.239  0.607E-02  0.607E-02
   6.254  0.598E-02  0.598E-02
   6.269  0.590E-02  0.590E-02
   6.284  0.583E-02  0.583E-02
   6.299  0.576E-02  0.576E-02
   6.314  0.569E-02  0.569E-02
   6.329  0.564E-02  0.564E-02
   6.344  0.558E-02  0.558E-02
   6.359  0.553E-02  0.553E-02
   6.374  0.549E-02  0.549E-02
   6.389  0.544E-02  0.544E-02
   6.404  0.541E-02  0.541E-02
   6.419  0.537E-02  0.537E-02
   6.434  0.533E-02  0.533E-02
   6.449  0.530E-02  0.530E-02
   6.464  0.526E-02  0.526E-02
   6.479  0.523E-02  0.523E-02
   6.494  0.520E-02  0.520E-02
   6.509  0.517E-02  0.517E-02
   6.524  0.513E-02  0.513E-02
   6.539  0.510E-02  0.510E-02
   6.554  0.506E-02  0.506E-02
   6.569  0.503E-02  0.503E-02
   6.584  0.499E-02  0.499E-02
   6.599  0.495E-02  0.495E-02
   6.614  0.491E-02  0.491E-02
   6.629  0.486E-02  0.486E-02
   6.644  0.482E-02  0.482E-02
   6.659  0.477E-02  0.477E-02
   6.674  0.472E-02  0.472E-02
   6.689  0.467E-02  0.467E-02
   6.704  0.462E-02  0.462E-02
   6.719  0.457E-02  0.457E-02
   6.734  0.452E-02  0.452E-02
   6.749  0.447E-02  0.447E-02
   6.764  0.442E-02  0.442E-02
   6.779  0.437E-02  0.437E-02
   6.794  0.432E-02  0.432E-02
   6.809  0.427E-02  0.427E-02
   6.824  0.423E-02  0.423E-02
   6.839  0.418E-02  0.418E-02
   6.854  0.414E-02  0.414E-02
   6.869  0.409E-02  0.409E-02
   6.884  0.406E-02  0.406E-02
   6.899  0.402E-02  0.402E-02
   6.914  0.398E-02  0.398E-02
   6.929  0.395E-02  0.395E-02
   6.944  0.392E-02  0.392E-02
   6.959  0.390E-02  0.390E-02
   6.974  0.388E-02  0.388E-02
   6.989  0.386E-02  0.386E-02
   7.004  0.384E-02  0.384E-02
   7.019  0.383E-02  0.383E-02
   7.034  0.382E-02  0.382E-02
   7.049  0.381E-02  0.381E-02
   7.064  0.381E-02  0.381E-02
   7.079  0.380E-02  0.380E-02
   7.094  0.381E-02  0.381E-02
   7.109  0.381E-02  0.381E-02
   7.124  0.382E-02  0.382E-02
   7.139  0.382E-02  0.382E-02
   7.154  0.383E-02  0.383E-02
   7.169  0.384E-02  0.384E-02
   7.184  0.386E-02  0.386E-02
   7.199  0.387E-02  0.387E-02
   7.214  0.388E-02  0.388E-02
   7.229  0.390E-02  0.390E-02
   7.244  0.391E-02  0.391E-02
   7.259  0.392E-02  0.392E-02
   7.274  0.393E-02  0.393E-02
   7.289  0.395E-02  0.395E-02
   7.304  0.396E-02  0.396E-02
   7.319  0.396E-02  0.396E-02
   7.334  0.397E-02  0.397E-02
   7.349  0.398E-02  0.398E-02
   7.364  0.398E-02  0.398E-02
   7.379  0.398E-02  0.398E-02
   7.394  0.398E-02  0.398E-02
   7.409  0.398E-02  0.398E-02
   7.424  0.398E-02  0.398E-02
   7.439  0.398E-02  0.398E-02
   7.454  0.397E-02  0.397E-02
   7.469  0.397E-02  0.397E-02
   7.484  0.396E-02  0.396E-02
   7.499  0.396E-02  0.396E-02
   7.514  0.395E-02  0.395E-02
   7.529  0.394E-02  0.394E-02
   7.544  0.394E-02  0.394E-02
   7.559  0.394E-02  0.394E-02
   7.574  0.393E-02  0.393E-02
   7.589  0.393E-02  0.393E-02
   7.604  0.393E-02  0.393E-02
   7.619  0.394E-02  0.394E-02
   7.634  0.394E-02  0.394E-02
   7.649  0.395E-02  0.395E-02
   7.664  0.396E-02  0.396E-02
   7.679  0.397E-02  0.397E-02
   7.694  0.398E-02  0.398E-02
   7.709  0.400E-02  0.400E-02
   7.724  0.402E-02  0.402E-02
   7.739  0.404E-02  0.404E-02
   7.754  0.407E-02  0.407E-02
   7.769  0.410E-02  0.410E-02
   7.784  0.413E-02  0.413E-02
   7.799  0.416E-02  0.416E-02
   7.814  0.420E-02  0.420E-02
   7.829  0.423E-02  0.423E-02
   7.844  0.427E-02  0.427E-02
   7.859  0.432E-02  0.432E-02
   7.874  0.436E-02  0.436E-02
   7.889  0.441E-02  0.441E-02
   7.904  0.446E-02  0.446E-02
   7.919  0.451E-02  0.451E-02
   7.934  0.457E-02  0.457E-02
   7.949  0.463E-02  0.463E-02
   7.964  0.468E-02  0.468E-02
   7.979  0.474E-02  0.474E-02
   7.994  0.480E-02  0.480E-02
   8.009  0.487E-02  0.487E-02
   8.024  0.493E-02  0.493E-02
   8.039  0.499E-02  0.499E-02
   8.054  0.505E-02  0.505E-02
   8.069  0.511E-02  0.511E-02
   8.084  0.517E-02  0.517E-02
   8.099  0.523E-02  0.523E-02
   8.114  0.529E-02  0.529E-02
   8.129  0.534E-02  0.534E-02
   8.144  0.539E-02  0.539E-02
   8.159  0.544E-02  0.544E-02
   8.174  0.548E-02  0.548E-02
   8.189  0.552E-02  0.552E-02
   8.204  0.556E-02  0.556E-02
   8.219  0.558E-02  0.558E-02
   8.234  0.560E-02  0.560E-02
   8.249  0.562E-02  0.562E-02
   8.264  0.563E-02  0.563E-02
   8.279  0.563E-02  0.563E-02
   8.294  0.563E-02  0.563E-02
   8.309  0.562E-02  0.562E-02
   8.324  0.560E-02  0.560E-02
   8.339  0.558E-02  0.558E-02
   8.354  0.556E-02  0.556E-02
   8.369  0.552E-02  0.552E-02
   8.384  0.548E-02  0.548E-02
   8.399  0.544E-02  0.544E-02
   8.414  0.540E-02  0.540E-02
   8.429  0.535E-02  0.535E-02
   8.444  0.529E-02  0.529E-02
   8.459  0.524E-02  0.524E-02
   8.474  0.518E-02  0.518E-02
   8.489  0.512E-02  0.512E-02
   8.504  0.506E-02  0.506E-02
   8.519  0.501E-02  0.501E-02
   8.534  0.495E-02  0.495E-02
   8.549  0.489E-02  0.489E-02
   8.564  0.483E-02  0.483E-02
   8.579  0.478E-02  0.478E-02
   8.594  0.473E-02  0.473E-02
   8.609  0.467E-02  0.467E-02
   8.624  0.463E-02  0.463E-02
   8.639  0.458E-02  0.458E-02
   8.654  0.453E-02  0.453E-02
   8.669  0.449E-02  0.449E-02
   8.684  0.444E-02  0.444E-02
   8.699  0.440E-02  0.440E-02
   8.714  0.436E-02  0.436E-02
   8.729  0.432E-02  0.432E-02
   8.744  0.429E-02  0.429E-02
   8.759  0.425E-02  0.425E-02
   8.774  0.421E-02  0.421E-02
   8.789  0.417E-02  0.417E-02
   8.804  0.413E-02  0.413E-02
   8.819  0.410E-02  0.410E-02
   8.834  0.406E-02  0.406E-02
   8.849  0.402E-02  0.402E-02
   8.864  0.398E-02  0.398E-02
   8.879  0.394E-02  0.394E-02
   8.894  0.389E-02  0.389E-02
   8.909  0.385E-02  0.385E-02
   8.924  0.381E-02  0.381E-02
   8.939  0.377E-02  0.377E-02
   8.954  0.372E-02  0.372E-02
   8.969  0.368E-02  0.368E-02
   8.984  0.364E-02  0.364E-02
   8.999  0.359E-02  0.359E-02
   9.014  0.355E-02  0.355E-02
   9.029  0.351E-02  0.351E-02
   9.044  0.346E-02  0.346E-02
   9.059  0.342E-02  0.342E-02
   9.074  0.337E-02  0.337E-02
   9.089  0.333E-02  0.333E-02
   9.104  0.329E-02  0.329E-02
   9.119  0.324E-02  0.324E-02
   9.134  0.319E-02  0.319E-02
   9.149  0.315E-02  0.315E-02
   9.164  0.310E-02  0.310E-02
   9.179  0.305E-02  0.305E-02
   9.194  0.300E-02  0.300E-02
   9.209  0.294E-02  0.294E-02
   9.224  0.289E-02  0.289E-02
   9.239  0.283E-02  0.283E-02
   9.254  0.276E-02  0.276E-02
   9.269  0.270E-02  0.270E-02
   9.284  0.263E-02  0.263E-02
   9.299  0.256E-02  0.256E-02
   9.314  0.249E-02  0.249E-02
   9.329  0.241E-02  0.241E-02
   9.344  0.233E-02  0.233E-02
   9.359  0.225E-02  0.225E-02
   9.374  0.216E-02  0.216E-02
   9.389  0.208E-02  0.208E-02
   9.404  0.199E-02  0.199E-02
   9.419  0.190E-02  0.190E-02
   9.434  0.181E-02  0.181E-02
   9.449  0.172E-02  0.172E-02
   9.464  0.162E-02  0.162E-02
   9.479  0.153E-02  0.153E-02
   9.494  0.144E-02  0.144E-02
   9.509  0.135E-02  0.135E-02
   9.524  0.127E-02  0.127E-02
   9.539  0.118E-02  0.118E-02
   9.554  0.110E-02  0.110E-02
   9.569  0.102E-02  0.102E-02
   9.584  0.937E-03  0.937E-03
   9.599  0.861E-03  0.861E-03
   9.614  0.790E-03  0.790E-03
   9.629  0.721E-03  0.721E-03
   9.644  0.656E-03  0.656E-03
   9.659  0.595E-03  0.595E-03
   9.674  0.538E-03  0.538E-03
   9.689  0.484E-03  0.484E-03
   9.704  0.434E-03  0.434E-03
   9.719  0.388E-03  0.388E-03
   9.734  0.345E-03  0.345E-03
   9.749  0.306E-03  0.306E-03
   9.764  0.270E-03  0.270E-03
   9.779  0.238E-03  0.238E-03
   9.794  0.208E-03  0.208E-03
   9.809  0.182E-03  0.182E-03
   9.824  0.158E-03  0.158E-03
   9.839  0.137E-03  0.137E-03
   9.854  0.118E-03  0.118E-03
   9.869  0.101E-03  0.101E-03
   9.884  0.862E-04  0.862E-04
   9.899  0.733E-04  0.733E-04
   9.914  0.621E-04  0.621E-04
   9.929  0.523E-04  0.523E-04
   9.944  0.439E-04  0.439E-04
   9.959  0.366E-04  0.366E-04
   9.974  0.304E-04  0.304E-04
   9.989  0.252E-04  0.252E-04
  10.004  0.207E-04  0.207E-04
  10.019  0.170E-04  0.170E-04
  10.034  0.138E-04  0.138E-04
  10.049  0.112E-04  0.112E-04
  10.064  0.907E-05  0.907E-05
  10.079  0.728E-05  0.728E-05
  10.094  0.582E-05  0.582E-05
  10.109  0.463E-05  0.463E-05
  10.124  0.366E-05  0.366E-05
  10.139  0.288E-05  0.288E-05
  10.154  0.225E-05  0.225E-05
  10.169  0.176E-05  0.176E-05
  10.184  0.136E-05  0.136E-05
  10.199  0.105E-05  0.105E-05
  10.214  0.803E-06  0.803E-06
  10.229  0.612E-06  0.612E-06
  10.244  0.464E-06  0.464E-06
  10.259  0.350E-06  0.350E-06
  10.274  0.262E-06  0.262E-06
  10.289  0.196E-06  0.196E-06
  10.304  0.145E-06  0.145E-06
  10.319  0.107E-06  0.107E-06
  10.334  0.785E-07  0.785E-07
  10.349  0.572E-07  0.572E-07
  10.364  0.415E-07  0.415E-07
  10.379  0.299E-07  0.299E-07
  10.394  0.215E-07  0.215E-07
  10.409  0.153E-07  0.153E-07
  10.424  0.109E-07  0.109E-07
  10.439  0.766E-08  0.766E-08
  10.454  0.537E-08  0.537E-08
