# E (eV)   ldos(E)   pdos(E)   
 -27.811  0.178E-03  0.178E-03
 -27.796  0.247E-03  0.247E-03
 -27.781  0.341E-03  0.341E-03
 -27.766  0.467E-03  0.467E-03
 -27.751  0.636E-03  0.636E-03
 -27.736  0.862E-03  0.862E-03
 -27.721  0.116E-02  0.116E-02
 -27.706  0.155E-02  0.155E-02
 -27.691  0.206E-02  0.206E-02
 -27.676  0.273E-02  0.273E-02
 -27.661  0.359E-02  0.359E-02
 -27.646  0.468E-02  0.468E-02
 -27.631  0.608E-02  0.608E-02
 -27.616  0.784E-02  0.784E-02
 -27.601  0.101E-01  0.101E-01
 -27.586  0.128E-01  0.128E-01
 -27.571  0.162E-01  0.162E-01
 -27.556  0.205E-01  0.205E-01
 -27.541  0.256E-01  0.256E-01
 -27.526  0.318E-01  0.318E-01
 -27.511  0.394E-01  0.394E-01
 -27.496  0.484E-01  0.484E-01
 -27.481  0.591E-01  0.591E-01
 -27.466  0.718E-01  0.718E-01
 -27.451  0.866E-01  0.866E-01
 -27.436  0.104E+00  0.104E+00
 -27.421  0.124E+00  0.124E+00
 -27.406  0.147E+00  0.147E+00
 -27.391  0.173E+00  0.173E+00
 -27.376  0.202E+00  0.202E+00
 -27.361  0.235E+00  0.235E+00
 -27.346  0.272E+00  0.272E+00
 -27.331  0.313E+00  0.313E+00
 -27.316  0.357E+00  0.357E+00
 -27.301  0.406E+00  0.406E+00
 -27.286  0.458E+00  0.458E+00
 -27.271  0.514E+00  0.514E+00
 -27.256  0.573E+00  0.573E+00
 -27.241  0.635E+00  0.635E+00
 -27.226  0.700E+00  0.700E+00
 -27.211  0.766E+00  0.766E+00
 -27.196  0.834E+00  0.834E+00
 -27.181  0.902E+00  0.902E+00
 -27.166  0.970E+00  0.970E+00
 -27.151  0.104E+01  0.104E+01
 -27.136  0.110E+01  0.110E+01
 -27.121  0.116E+01  0.116E+01
 -27.106  0.122E+01  0.122E+01
 -27.091  0.127E+01  0.127E+01
 -27.076  0.132E+01  0.132E+01
 -27.061  0.136E+01  0.136E+01
 -27.046  0.139E+01  0.139E+01
 -27.031  0.142E+01  0.142E+01
 -27.016  0.143E+01  0.143E+01
 -27.001  0.144E+01  0.144E+01
 -26.986  0.144E+01  0.144E+01
 -26.971  0.143E+01  0.143E+01
 -26.956  0.141E+01  0.141E+01
 -26.941  0.139E+01  0.139E+01
 -26.926  0.135E+01  0.135E+01
 -26.911  0.131E+01  0.131E+01
 -26.896  0.126E+01  0.126E+01
 -26.881  0.121E+01  0.121E+01
 -26.866  0.115E+01  0.115E+01
 -26.851  0.109E+01  0.109E+01
 -26.836  0.103E+01  0.103E+01
 -26.821  0.960E+00  0.960E+00
 -26.806  0.892E+00  0.892E+00
 -26.791  0.824E+00  0.824E+00
 -26.776  0.756E+00  0.756E+00
 -26.761  0.690E+00  0.690E+00
 -26.746  0.626E+00  0.626E+00
 -26.731  0.564E+00  0.564E+00
 -26.716  0.505E+00  0.505E+00
 -26.701  0.450E+00  0.450E+00
 -26.686  0.398E+00  0.398E+00
 -26.671  0.350E+00  0.350E+00
 -26.656  0.306E+00  0.306E+00
 -26.641  0.266E+00  0.266E+00
 -26.626  0.230E+00  0.230E+00
 -26.611  0.198E+00  0.198E+00
 -26.596  0.169E+00  0.169E+00
 -26.581  0.143E+00  0.143E+00
 -26.566  0.121E+00  0.121E+00
 -26.551  0.101E+00  0.101E+00
 -26.536  0.842E-01  0.842E-01
 -26.521  0.697E-01  0.697E-01
 -26.506  0.573E-01  0.573E-01
 -26.491  0.469E-01  0.469E-01
 -26.476  0.381E-01  0.381E-01
 -26.461  0.308E-01  0.308E-01
 -26.446  0.247E-01  0.247E-01
 -26.431  0.198E-01  0.198E-01
 -26.416  0.157E-01  0.157E-01
 -26.401  0.124E-01  0.124E-01
 -26.386  0.969E-02  0.969E-02
 -26.371  0.755E-02  0.755E-02
 -26.356  0.584E-02  0.584E-02
 -26.341  0.450E-02  0.450E-02
 -26.326  0.344E-02  0.344E-02
 -26.311  0.262E-02  0.262E-02
 -26.296  0.198E-02  0.198E-02
 -26.281  0.149E-02  0.149E-02
 -26.266  0.111E-02  0.111E-02
 -26.251  0.823E-03  0.823E-03
 -26.236  0.607E-03  0.607E-03
 -26.221  0.445E-03  0.445E-03
 -26.206  0.324E-03  0.324E-03
 -26.191  0.235E-03  0.235E-03
 -26.176  0.169E-03  0.169E-03
 -26.161  0.121E-03  0.121E-03
 -26.146  0.861E-04  0.861E-04
 -26.131  0.608E-04  0.608E-04
 -26.116  0.427E-04  0.427E-04
 -26.101  0.299E-04  0.299E-04
 -26.086  0.207E-04  0.207E-04
 -26.071  0.143E-04  0.143E-04
 -26.056  0.980E-05  0.980E-05
 -26.041  0.668E-05  0.668E-05
 -26.026  0.453E-05  0.453E-05
 -26.011  0.305E-05  0.305E-05
 -25.996  0.204E-05  0.204E-05
 -25.981  0.136E-05  0.136E-05
 -25.966  0.897E-06  0.897E-06
 -25.951  0.590E-06  0.590E-06
 -25.936  0.385E-06  0.385E-06
 -25.921  0.250E-06  0.250E-06
 -25.906  0.161E-06  0.161E-06
 -25.891  0.103E-06  0.103E-06
 -25.876  0.660E-07  0.660E-07
 -25.861  0.418E-07  0.418E-07
 -25.846  0.263E-07  0.263E-07
 -25.831  0.165E-07  0.165E-07
 -25.816  0.103E-07  0.103E-07
 -25.801  0.634E-08  0.634E-08
 -25.786  0.390E-08  0.390E-08
 -25.771  0.238E-08  0.238E-08
 -25.756  0.145E-08  0.145E-08
 -25.741  0.873E-09  0.873E-09
 -25.726  0.524E-09  0.524E-09
 -25.711  0.312E-09  0.312E-09
 -25.696  0.185E-09  0.185E-09
 -25.681  0.109E-09  0.109E-09
 -25.666  0.638E-10  0.638E-10
 -25.651  0.372E-10  0.372E-10
 -25.636  0.215E-10  0.215E-10
 -25.621  0.000E+00  0.000E+00
 -25.606  0.000E+00  0.000E+00
 -25.591  0.000E+00  0.000E+00
 -25.576  0.000E+00  0.000E+00
 -25.561  0.000E+00  0.000E+00
 -25.546  0.000E+00  0.000E+00
 -25.531  0.000E+00  0.000E+00
 -25.516  0.000E+00  0.000E+00
 -25.501  0.000E+00  0.000E+00
 -25.486  0.000E+00  0.000E+00
 -25.471  0.000E+00  0.000E+00
 -25.456  0.000E+00  0.000E+00
 -25.441  0.000E+00  0.000E+00
 -25.426  0.000E+00  0.000E+00
 -25.411  0.000E+00  0.000E+00
 -25.396  0.000E+00  0.000E+00
 -25.381  0.000E+00  0.000E+00
 -25.366  0.000E+00  0.000E+00
 -25.351  0.000E+00  0.000E+00
 -25.336  0.000E+00  0.000E+00
 -25.321  0.000E+00  0.000E+00
 -25.306  0.000E+00  0.000E+00
 -25.291  0.000E+00  0.000E+00
 -25.276  0.000E+00  0.000E+00
 -25.261  0.000E+00  0.000E+00
 -25.246  0.513E-13  0.513E-13
 -25.231  0.109E-12  0.109E-12
 -25.216  0.203E-12  0.203E-12
 -25.201  0.376E-12  0.376E-12
 -25.186  0.680E-12  0.680E-12
 -25.171  0.120E-11  0.120E-11
 -25.156  0.208E-11  0.208E-11
 -25.141  0.350E-11  0.350E-11
 -25.126  0.586E-11  0.586E-11
 -25.111  0.973E-11  0.973E-11
 -25.096  0.161E-10  0.161E-10
 -25.081  0.264E-10  0.264E-10
 -25.066  0.432E-10  0.432E-10
 -25.051  0.701E-10  0.701E-10
 -25.036  0.113E-09  0.113E-09
 -25.021  0.181E-09  0.181E-09
 -25.006  0.289E-09  0.289E-09
 -24.991  0.458E-09  0.458E-09
 -24.976  0.722E-09  0.722E-09
 -24.961  0.113E-08  0.113E-08
 -24.946  0.176E-08  0.176E-08
 -24.931  0.272E-08  0.272E-08
 -24.916  0.419E-08  0.419E-08
 -24.901  0.640E-08  0.640E-08
 -24.886  0.974E-08  0.974E-08
 -24.871  0.147E-07  0.147E-07
 -24.856  0.221E-07  0.221E-07
 -24.841  0.330E-07  0.330E-07
 -24.826  0.491E-07  0.491E-07
 -24.811  0.724E-07  0.724E-07
 -24.796  0.106E-06  0.106E-06
 -24.781  0.155E-06  0.155E-06
 -24.766  0.225E-06  0.225E-06
 -24.751  0.324E-06  0.324E-06
 -24.736  0.465E-06  0.465E-06
 -24.721  0.663E-06  0.663E-06
 -24.706  0.940E-06  0.940E-06
 -24.691  0.132E-05  0.132E-05
 -24.676  0.185E-05  0.185E-05
 -24.661  0.258E-05  0.258E-05
 -24.646  0.358E-05  0.358E-05
 -24.631  0.492E-05  0.492E-05
 -24.616  0.674E-05  0.674E-05
 -24.601  0.917E-05  0.917E-05
 -24.586  0.124E-04  0.124E-04
 -24.571  0.167E-04  0.167E-04
 -24.556  0.223E-04  0.223E-04
 -24.541  0.297E-04  0.297E-04
 -24.526  0.393E-04  0.393E-04
 -24.511  0.516E-04  0.516E-04
 -24.496  0.675E-04  0.675E-04
 -24.481  0.878E-04  0.878E-04
 -24.466  0.113E-03  0.113E-03
 -24.451  0.146E-03  0.146E-03
 -24.436  0.186E-03  0.186E-03
 -24.421  0.237E-03  0.237E-03
 -24.406  0.300E-03  0.300E-03
 -24.391  0.377E-03  0.377E-03
 -24.376  0.471E-03  0.471E-03
 -24.361  0.585E-03  0.585E-03
 -24.346  0.723E-03  0.723E-03
 -24.331  0.889E-03  0.889E-03
 -24.316  0.109E-02  0.109E-02
 -24.301  0.132E-02  0.132E-02
 -24.286  0.160E-02  0.160E-02
 -24.271  0.192E-02  0.192E-02
 -24.256  0.230E-02  0.230E-02
 -24.241  0.273E-02  0.273E-02
 -24.226  0.324E-02  0.324E-02
 -24.211  0.381E-02  0.381E-02
 -24.196  0.446E-02  0.446E-02
 -24.181  0.519E-02  0.519E-02
 -24.166  0.601E-02  0.601E-02
 -24.151  0.693E-02  0.693E-02
 -24.136  0.794E-02  0.794E-02
 -24.121  0.906E-02  0.906E-02
 -24.106  0.103E-01  0.103E-01
 -24.091  0.116E-01  0.116E-01
 -24.076  0.130E-01  0.130E-01
 -24.061  0.145E-01  0.145E-01
 -24.046  0.161E-01  0.161E-01
 -24.031  0.178E-01  0.178E-01
 -24.016  0.196E-01  0.196E-01
 -24.001  0.215E-01  0.215E-01
 -23.986  0.234E-01  0.234E-01
 -23.971  0.253E-01  0.253E-01
 -23.956  0.273E-01  0.273E-01
 -23.941  0.292E-01  0.292E-01
 -23.926  0.312E-01  0.312E-01
 -23.911  0.331E-01  0.331E-01
 -23.896  0.350E-01  0.350E-01
 -23.881  0.367E-01  0.367E-01
 -23.866  0.384E-01  0.384E-01
 -23.851  0.400E-01  0.400E-01
 -23.836  0.414E-01  0.414E-01
 -23.821  0.426E-01  0.426E-01
 -23.806  0.437E-01  0.437E-01
 -23.791  0.446E-01  0.446E-01
 -23.776  0.452E-01  0.452E-01
 -23.761  0.457E-01  0.457E-01
 -23.746  0.459E-01  0.459E-01
 -23.731  0.459E-01  0.459E-01
 -23.716  0.457E-01  0.457E-01
 -23.701  0.452E-01  0.452E-01
 -23.686  0.445E-01  0.445E-01
 -23.671  0.437E-01  0.437E-01
 -23.656  0.426E-01  0.426E-01
 -23.641  0.413E-01  0.413E-01
 -23.626  0.399E-01  0.399E-01
 -23.611  0.384E-01  0.384E-01
 -23.596  0.367E-01  0.367E-01
 -23.581  0.349E-01  0.349E-01
 -23.566  0.331E-01  0.331E-01
 -23.551  0.312E-01  0.312E-01
 -23.536  0.292E-01  0.292E-01
 -23.521  0.273E-01  0.273E-01
 -23.506  0.254E-01  0.254E-01
 -23.491  0.235E-01  0.235E-01
 -23.476  0.216E-01  0.216E-01
 -23.461  0.198E-01  0.198E-01
 -23.446  0.181E-01  0.181E-01
 -23.431  0.164E-01  0.164E-01
 -23.416  0.149E-01  0.149E-01
 -23.401  0.134E-01  0.134E-01
 -23.386  0.120E-01  0.120E-01
 -23.371  0.108E-01  0.108E-01
 -23.356  0.960E-02  0.960E-02
 -23.341  0.854E-02  0.854E-02
 -23.326  0.758E-02  0.758E-02
 -23.311  0.672E-02  0.672E-02
 -23.296  0.594E-02  0.594E-02
 -23.281  0.526E-02  0.526E-02
 -23.266  0.465E-02  0.465E-02
 -23.251  0.412E-02  0.412E-02
 -23.236  0.365E-02  0.365E-02
 -23.221  0.324E-02  0.324E-02
 -23.206  0.289E-02  0.289E-02
 -23.191  0.259E-02  0.259E-02
 -23.176  0.233E-02  0.233E-02
 -23.161  0.211E-02  0.211E-02
 -23.146  0.192E-02  0.192E-02
 -23.131  0.176E-02  0.176E-02
 -23.116  0.163E-02  0.163E-02
 -23.101  0.151E-02  0.151E-02
 -23.086  0.141E-02  0.141E-02
 -23.071  0.132E-02  0.132E-02
 -23.056  0.125E-02  0.125E-02
 -23.041  0.119E-02  0.119E-02
 -23.026  0.113E-02  0.113E-02
 -23.011  0.108E-02  0.108E-02
 -22.996  0.103E-02  0.103E-02
 -22.981  0.989E-03  0.989E-03
 -22.966  0.950E-03  0.950E-03
 -22.951  0.915E-03  0.915E-03
 -22.936  0.882E-03  0.882E-03
 -22.921  0.852E-03  0.852E-03
 -22.906  0.824E-03  0.824E-03
 -22.891  0.798E-03  0.798E-03
 -22.876  0.775E-03  0.775E-03
 -22.861  0.754E-03  0.754E-03
 -22.846  0.737E-03  0.737E-03
 -22.831  0.722E-03  0.722E-03
 -22.816  0.711E-03  0.711E-03
 -22.801  0.703E-03  0.703E-03
 -22.786  0.698E-03  0.698E-03
 -22.771  0.698E-03  0.698E-03
 -22.756  0.702E-03  0.702E-03
 -22.741  0.711E-03  0.711E-03
 -22.726  0.724E-03  0.724E-03
 -22.711  0.742E-03  0.742E-03
 -22.696  0.765E-03  0.765E-03
 -22.681  0.793E-03  0.793E-03
 -22.666  0.826E-03  0.826E-03
 -22.651  0.864E-03  0.864E-03
 -22.636  0.907E-03  0.907E-03
 -22.621  0.956E-03  0.956E-03
 -22.606  0.101E-02  0.101E-02
 -22.591  0.107E-02  0.107E-02
 -22.576  0.113E-02  0.113E-02
 -22.561  0.120E-02  0.120E-02
 -22.546  0.127E-02  0.127E-02
 -22.531  0.134E-02  0.134E-02
 -22.516  0.142E-02  0.142E-02
 -22.501  0.149E-02  0.149E-02
 -22.486  0.157E-02  0.157E-02
 -22.471  0.165E-02  0.165E-02
 -22.456  0.174E-02  0.174E-02
 -22.441  0.182E-02  0.182E-02
 -22.426  0.190E-02  0.190E-02
 -22.411  0.197E-02  0.197E-02
 -22.396  0.205E-02  0.205E-02
 -22.381  0.212E-02  0.212E-02
 -22.366  0.219E-02  0.219E-02
 -22.351  0.225E-02  0.225E-02
 -22.336  0.231E-02  0.231E-02
 -22.321  0.236E-02  0.236E-02
 -22.306  0.241E-02  0.241E-02
 -22.291  0.245E-02  0.245E-02
 -22.276  0.248E-02  0.248E-02
 -22.261  0.251E-02  0.251E-02
 -22.246  0.253E-02  0.253E-02
 -22.231  0.254E-02  0.254E-02
 -22.216  0.255E-02  0.255E-02
 -22.201  0.255E-02  0.255E-02
 -22.186  0.254E-02  0.254E-02
 -22.171  0.253E-02  0.253E-02
 -22.156  0.251E-02  0.251E-02
 -22.141  0.249E-02  0.249E-02
 -22.126  0.246E-02  0.246E-02
 -22.111  0.242E-02  0.242E-02
 -22.096  0.238E-02  0.238E-02
 -22.081  0.234E-02  0.234E-02
 -22.066  0.230E-02  0.230E-02
 -22.051  0.226E-02  0.226E-02
 -22.036  0.221E-02  0.221E-02
 -22.021  0.216E-02  0.216E-02
 -22.006  0.211E-02  0.211E-02
 -21.991  0.207E-02  0.207E-02
 -21.976  0.202E-02  0.202E-02
 -21.961  0.198E-02  0.198E-02
 -21.946  0.194E-02  0.194E-02
 -21.931  0.190E-02  0.190E-02
 -21.916  0.186E-02  0.186E-02
 -21.901  0.183E-02  0.183E-02
 -21.886  0.180E-02  0.180E-02
 -21.871  0.178E-02  0.178E-02
 -21.856  0.175E-02  0.175E-02
 -21.841  0.173E-02  0.173E-02
 -21.826  0.172E-02  0.172E-02
 -21.811  0.170E-02  0.170E-02
 -21.796  0.169E-02  0.169E-02
 -21.781  0.168E-02  0.168E-02
 -21.766  0.168E-02  0.168E-02
 -21.751  0.167E-02  0.167E-02
 -21.736  0.166E-02  0.166E-02
 -21.721  0.166E-02  0.166E-02
 -21.706  0.165E-02  0.165E-02
 -21.691  0.164E-02  0.164E-02
 -21.676  0.163E-02  0.163E-02
 -21.661  0.162E-02  0.162E-02
 -21.646  0.161E-02  0.161E-02
 -21.631  0.159E-02  0.159E-02
 -21.616  0.157E-02  0.157E-02
 -21.601  0.155E-02  0.155E-02
 -21.586  0.152E-02  0.152E-02
 -21.571  0.149E-02  0.149E-02
 -21.556  0.146E-02  0.146E-02
 -21.541  0.142E-02  0.142E-02
 -21.526  0.138E-02  0.138E-02
 -21.511  0.134E-02  0.134E-02
 -21.496  0.129E-02  0.129E-02
 -21.481  0.124E-02  0.124E-02
 -21.466  0.119E-02  0.119E-02
 -21.451  0.114E-02  0.114E-02
 -21.436  0.108E-02  0.108E-02
 -21.421  0.103E-02  0.103E-02
 -21.406  0.973E-03  0.973E-03
 -21.391  0.917E-03  0.917E-03
 -21.376  0.861E-03  0.861E-03
 -21.361  0.806E-03  0.806E-03
 -21.346  0.752E-03  0.752E-03
 -21.331  0.700E-03  0.700E-03
 -21.316  0.648E-03  0.648E-03
 -21.301  0.599E-03  0.599E-03
 -21.286  0.552E-03  0.552E-03
 -21.271  0.507E-03  0.507E-03
 -21.256  0.464E-03  0.464E-03
 -21.241  0.423E-03  0.423E-03
 -21.226  0.385E-03  0.385E-03
 -21.211  0.349E-03  0.349E-03
 -21.196  0.316E-03  0.316E-03
 -21.181  0.285E-03  0.285E-03
 -21.166  0.256E-03  0.256E-03
 -21.151  0.229E-03  0.229E-03
 -21.136  0.205E-03  0.205E-03
 -21.121  0.183E-03  0.183E-03
 -21.106  0.162E-03  0.162E-03
 -21.091  0.144E-03  0.144E-03
 -21.076  0.127E-03  0.127E-03
 -21.061  0.111E-03  0.111E-03
 -21.046  0.978E-04  0.978E-04
 -21.031  0.855E-04  0.855E-04
 -21.016  0.744E-04  0.744E-04
 -21.001  0.646E-04  0.646E-04
 -20.986  0.558E-04  0.558E-04
 -20.971  0.481E-04  0.481E-04
 -20.956  0.413E-04  0.413E-04
 -20.941  0.353E-04  0.353E-04
 -20.926  0.300E-04  0.300E-04
 -20.911  0.254E-04  0.254E-04
 -20.896  0.215E-04  0.215E-04
 -20.881  0.180E-04  0.180E-04
 -20.866  0.151E-04  0.151E-04
 -20.851  0.126E-04  0.126E-04
 -20.836  0.104E-04  0.104E-04
 -20.821  0.858E-05  0.858E-05
 -20.806  0.704E-05  0.704E-05
 -20.791  0.575E-05  0.575E-05
 -20.776  0.467E-05  0.467E-05
 -20.761  0.378E-05  0.378E-05
 -20.746  0.304E-05  0.304E-05
 -20.731  0.243E-05  0.243E-05
 -20.716  0.193E-05  0.193E-05
 -20.701  0.153E-05  0.153E-05
 -20.686  0.120E-05  0.120E-05
 -20.671  0.942E-06  0.942E-06
 -20.656  0.734E-06  0.734E-06
 -20.641  0.568E-06  0.568E-06
 -20.626  0.437E-06  0.437E-06
 -20.611  0.335E-06  0.335E-06
 -20.596  0.255E-06  0.255E-06
 -20.581  0.193E-06  0.193E-06
 -20.566  0.145E-06  0.145E-06
 -20.551  0.109E-06  0.109E-06
 -20.536  0.808E-07  0.808E-07
 -20.521  0.598E-07  0.598E-07
 -20.506  0.440E-07  0.440E-07
 -20.491  0.322E-07  0.322E-07
 -20.476  0.234E-07  0.234E-07
 -20.461  0.169E-07  0.169E-07
 -20.446  0.121E-07  0.121E-07
 -20.431  0.867E-08  0.867E-08
 -20.416  0.616E-08  0.616E-08
 -20.401  0.435E-08  0.435E-08
 -20.386  0.305E-08  0.305E-08
 -20.371  0.213E-08  0.213E-08
 -20.356  0.148E-08  0.148E-08
 -20.341  0.102E-08  0.102E-08
 -20.326  0.697E-09  0.697E-09
 -20.311  0.475E-09  0.475E-09
 -20.296  0.322E-09  0.322E-09
 -20.281  0.217E-09  0.217E-09
 -20.266  0.145E-09  0.145E-09
 -20.251  0.964E-10  0.964E-10
 -20.236  0.638E-10  0.638E-10
 -20.221  0.419E-10  0.419E-10
 -20.206  0.274E-10  0.274E-10
 -20.191  0.178E-10  0.178E-10
 -20.176  0.115E-10  0.115E-10
 -20.161  0.737E-11  0.737E-11
 -20.146  0.470E-11  0.470E-11
 -20.131  0.298E-11  0.298E-11
 -20.116  0.188E-11  0.188E-11
 -20.101  0.118E-11  0.118E-11
 -20.086  0.732E-12  0.732E-12
 -20.071  0.453E-12  0.453E-12
 -20.056  0.279E-12  0.279E-12
 -20.041  0.170E-12  0.170E-12
 -20.026  0.104E-12  0.104E-12
 -20.011  0.626E-13  0.626E-13
 -19.996  0.376E-13  0.376E-13
 -19.981  0.225E-13  0.225E-13
 -19.966  0.133E-13  0.133E-13
 -19.951  0.782E-14  0.782E-14
 -19.936  0.459E-14  0.459E-14
 -19.921  0.268E-14  0.268E-14
 -19.906  0.128E-14  0.128E-14
 -19.891  0.513E-15  0.513E-15
 -19.876  0.197E-15  0.197E-15
 -19.861  0.000E+00  0.000E+00
 -19.846  0.000E+00  0.000E+00
 -19.831  0.000E+00  0.000E+00
 -19.816  0.000E+00  0.000E+00
 -19.801  0.000E+00  0.000E+00
 -19.786  0.000E+00  0.000E+00
 -19.771  0.000E+00  0.000E+00
 -19.756  0.000E+00  0.000E+00
 -19.741  0.000E+00  0.000E+00
 -19.726  0.000E+00  0.000E+00
 -19.711  0.000E+00  0.000E+00
 -19.696  0.000E+00  0.000E+00
 -19.681  0.000E+00  0.000E+00
 -19.666  0.000E+00  0.000E+00
 -19.651  0.000E+00  0.000E+00
 -19.636  0.000E+00  0.000E+00
 -19.621  0.000E+00  0.000E+00
 -19.606  0.000E+00  0.000E+00
 -19.591  0.000E+00  0.000E+00
 -19.576  0.000E+00  0.000E+00
 -19.561  0.000E+00  0.000E+00
 -19.546  0.000E+00  0.000E+00
 -19.531  0.000E+00  0.000E+00
 -19.516  0.000E+00  0.000E+00
 -19.501  0.000E+00  0.000E+00
 -19.486  0.000E+00  0.000E+00
 -19.471  0.000E+00  0.000E+00
 -19.456  0.000E+00  0.000E+00
 -19.441  0.000E+00  0.000E+00
 -19.426  0.000E+00  0.000E+00
 -19.411  0.000E+00  0.000E+00
 -19.396  0.000E+00  0.000E+00
 -19.381  0.000E+00  0.000E+00
 -19.366  0.000E+00  0.000E+00
 -19.351  0.000E+00  0.000E+00
 -19.336  0.000E+00  0.000E+00
 -19.321  0.000E+00  0.000E+00
 -19.306  0.000E+00  0.000E+00
 -19.291  0.000E+00  0.000E+00
 -19.276  0.000E+00  0.000E+00
 -19.261  0.000E+00  0.000E+00
 -19.246  0.000E+00  0.000E+00
 -19.231  0.000E+00  0.000E+00
 -19.216  0.000E+00  0.000E+00
 -19.201  0.000E+00  0.000E+00
 -19.186  0.000E+00  0.000E+00
 -19.171  0.000E+00  0.000E+00
 -19.156  0.000E+00  0.000E+00
 -19.141  0.000E+00  0.000E+00
 -19.126  0.000E+00  0.000E+00
 -19.111  0.000E+00  0.000E+00
 -19.096  0.000E+00  0.000E+00
 -19.081  0.000E+00  0.000E+00
 -19.066  0.000E+00  0.000E+00
 -19.051  0.000E+00  0.000E+00
 -19.036  0.000E+00  0.000E+00
 -19.021  0.000E+00  0.000E+00
 -19.006  0.000E+00  0.000E+00
 -18.991  0.000E+00  0.000E+00
 -18.976  0.000E+00  0.000E+00
 -18.961  0.000E+00  0.000E+00
 -18.946  0.000E+00  0.000E+00
 -18.931  0.000E+00  0.000E+00
 -18.916  0.000E+00  0.000E+00
 -18.901  0.000E+00  0.000E+00
 -18.886  0.000E+00  0.000E+00
 -18.871  0.000E+00  0.000E+00
 -18.856  0.000E+00  0.000E+00
 -18.841  0.000E+00  0.000E+00
 -18.826  0.000E+00  0.000E+00
 -18.811  0.000E+00  0.000E+00
 -18.796  0.000E+00  0.000E+00
 -18.781  0.000E+00  0.000E+00
 -18.766  0.000E+00  0.000E+00
 -18.751  0.000E+00  0.000E+00
 -18.736  0.000E+00  0.000E+00
 -18.721  0.000E+00  0.000E+00
 -18.706  0.000E+00  0.000E+00
 -18.691  0.000E+00  0.000E+00
 -18.676  0.000E+00  0.000E+00
 -18.661  0.000E+00  0.000E+00
 -18.646  0.000E+00  0.000E+00
 -18.631  0.000E+00  0.000E+00
 -18.616  0.000E+00  0.000E+00
 -18.601  0.000E+00  0.000E+00
 -18.586  0.000E+00  0.000E+00
 -18.571  0.000E+00  0.000E+00
 -18.556  0.000E+00  0.000E+00
 -18.541  0.000E+00  0.000E+00
 -18.526  0.000E+00  0.000E+00
 -18.511  0.000E+00  0.000E+00
 -18.496  0.000E+00  0.000E+00
 -18.481  0.000E+00  0.000E+00
 -18.466  0.000E+00  0.000E+00
 -18.451  0.000E+00  0.000E+00
 -18.436  0.000E+00  0.000E+00
 -18.421  0.000E+00  0.000E+00
 -18.406  0.000E+00  0.000E+00
 -18.391  0.000E+00  0.000E+00
 -18.376  0.000E+00  0.000E+00
 -18.361  0.000E+00  0.000E+00
 -18.346  0.000E+00  0.000E+00
 -18.331  0.000E+00  0.000E+00
 -18.316  0.000E+00  0.000E+00
 -18.301  0.000E+00  0.000E+00
 -18.286  0.000E+00  0.000E+00
 -18.271  0.000E+00  0.000E+00
 -18.256  0.000E+00  0.000E+00
 -18.241  0.000E+00  0.000E+00
 -18.226  0.000E+00  0.000E+00
 -18.211  0.000E+00  0.000E+00
 -18.196  0.000E+00  0.000E+00
 -18.181  0.000E+00  0.000E+00
 -18.166  0.000E+00  0.000E+00
 -18.151  0.000E+00  0.000E+00
 -18.136  0.000E+00  0.000E+00
 -18.121  0.000E+00  0.000E+00
 -18.106  0.000E+00  0.000E+00
 -18.091  0.000E+00  0.000E+00
 -18.076  0.000E+00  0.000E+00
 -18.061  0.000E+00  0.000E+00
 -18.046  0.000E+00  0.000E+00
 -18.031  0.000E+00  0.000E+00
 -18.016  0.000E+00  0.000E+00
 -18.001  0.000E+00  0.000E+00
 -17.986  0.000E+00  0.000E+00
 -17.971  0.000E+00  0.000E+00
 -17.956  0.000E+00  0.000E+00
 -17.941  0.000E+00  0.000E+00
 -17.926  0.000E+00  0.000E+00
 -17.911  0.000E+00  0.000E+00
 -17.896  0.000E+00  0.000E+00
 -17.881  0.000E+00  0.000E+00
 -17.866  0.000E+00  0.000E+00
 -17.851  0.000E+00  0.000E+00
 -17.836  0.000E+00  0.000E+00
 -17.821  0.000E+00  0.000E+00
 -17.806  0.000E+00  0.000E+00
 -17.791  0.000E+00  0.000E+00
 -17.776  0.000E+00  0.000E+00
 -17.761  0.000E+00  0.000E+00
 -17.746  0.000E+00  0.000E+00
 -17.731  0.000E+00  0.000E+00
 -17.716  0.000E+00  0.000E+00
 -17.701  0.000E+00  0.000E+00
 -17.686  0.000E+00  0.000E+00
 -17.671  0.000E+00  0.000E+00
 -17.656  0.000E+00  0.000E+00
 -17.641  0.000E+00  0.000E+00
 -17.626  0.000E+00  0.000E+00
 -17.611  0.000E+00  0.000E+00
 -17.596  0.000E+00  0.000E+00
 -17.581  0.000E+00  0.000E+00
 -17.566  0.000E+00  0.000E+00
 -17.551  0.000E+00  0.000E+00
 -17.536  0.000E+00  0.000E+00
 -17.521  0.000E+00  0.000E+00
 -17.506  0.000E+00  0.000E+00
 -17.491  0.000E+00  0.000E+00
 -17.476  0.000E+00  0.000E+00
 -17.461  0.000E+00  0.000E+00
 -17.446  0.000E+00  0.000E+00
 -17.431  0.000E+00  0.000E+00
 -17.416  0.000E+00  0.000E+00
 -17.401  0.000E+00  0.000E+00
 -17.386  0.000E+00  0.000E+00
 -17.371  0.000E+00  0.000E+00
 -17.356  0.000E+00  0.000E+00
 -17.341  0.000E+00  0.000E+00
 -17.326  0.000E+00  0.000E+00
 -17.311  0.000E+00  0.000E+00
 -17.296  0.000E+00  0.000E+00
 -17.281  0.000E+00  0.000E+00
 -17.266  0.000E+00  0.000E+00
 -17.251  0.000E+00  0.000E+00
 -17.236  0.000E+00  0.000E+00
 -17.221  0.000E+00  0.000E+00
 -17.206  0.000E+00  0.000E+00
 -17.191  0.000E+00  0.000E+00
 -17.176  0.000E+00  0.000E+00
 -17.161  0.000E+00  0.000E+00
 -17.146  0.000E+00  0.000E+00
 -17.131  0.000E+00  0.000E+00
 -17.116  0.000E+00  0.000E+00
 -17.101  0.000E+00  0.000E+00
 -17.086  0.000E+00  0.000E+00
 -17.071  0.000E+00  0.000E+00
 -17.056  0.000E+00  0.000E+00
 -17.041  0.000E+00  0.000E+00
 -17.026  0.000E+00  0.000E+00
 -17.011  0.000E+00  0.000E+00
 -16.996  0.000E+00  0.000E+00
 -16.981  0.000E+00  0.000E+00
 -16.966  0.000E+00  0.000E+00
 -16.951  0.000E+00  0.000E+00
 -16.936  0.000E+00  0.000E+00
 -16.921  0.000E+00  0.000E+00
 -16.906  0.000E+00  0.000E+00
 -16.891  0.000E+00  0.000E+00
 -16.876  0.000E+00  0.000E+00
 -16.861  0.000E+00  0.000E+00
 -16.846  0.000E+00  0.000E+00
 -16.831  0.000E+00  0.000E+00
 -16.816  0.000E+00  0.000E+00
 -16.801  0.000E+00  0.000E+00
 -16.786  0.000E+00  0.000E+00
 -16.771  0.000E+00  0.000E+00
 -16.756  0.000E+00  0.000E+00
 -16.741  0.000E+00  0.000E+00
 -16.726  0.000E+00  0.000E+00
 -16.711  0.000E+00  0.000E+00
 -16.696  0.000E+00  0.000E+00
 -16.681  0.000E+00  0.000E+00
 -16.666  0.000E+00  0.000E+00
 -16.651  0.000E+00  0.000E+00
 -16.636  0.000E+00  0.000E+00
 -16.621  0.000E+00  0.000E+00
 -16.606  0.000E+00  0.000E+00
 -16.591  0.000E+00  0.000E+00
 -16.576  0.000E+00  0.000E+00
 -16.561  0.000E+00  0.000E+00
 -16.546  0.000E+00  0.000E+00
 -16.531  0.000E+00  0.000E+00
 -16.516  0.000E+00  0.000E+00
 -16.501  0.000E+00  0.000E+00
 -16.486  0.000E+00  0.000E+00
 -16.471  0.000E+00  0.000E+00
 -16.456  0.000E+00  0.000E+00
 -16.441  0.000E+00  0.000E+00
 -16.426  0.000E+00  0.000E+00
 -16.411  0.000E+00  0.000E+00
 -16.396  0.000E+00  0.000E+00
 -16.381  0.000E+00  0.000E+00
 -16.366  0.000E+00  0.000E+00
 -16.351  0.000E+00  0.000E+00
 -16.336  0.000E+00  0.000E+00
 -16.321  0.000E+00  0.000E+00
 -16.306  0.000E+00  0.000E+00
 -16.291  0.000E+00  0.000E+00
 -16.276  0.000E+00  0.000E+00
 -16.261  0.000E+00  0.000E+00
 -16.246  0.000E+00  0.000E+00
 -16.231  0.000E+00  0.000E+00
 -16.216  0.000E+00  0.000E+00
 -16.201  0.000E+00  0.000E+00
 -16.186  0.000E+00  0.000E+00
 -16.171  0.000E+00  0.000E+00
 -16.156  0.000E+00  0.000E+00
 -16.141  0.000E+00  0.000E+00
 -16.126  0.000E+00  0.000E+00
 -16.111  0.000E+00  0.000E+00
 -16.096  0.000E+00  0.000E+00
 -16.081  0.000E+00  0.000E+00
 -16.066  0.000E+00  0.000E+00
 -16.051  0.000E+00  0.000E+00
 -16.036  0.000E+00  0.000E+00
 -16.021  0.000E+00  0.000E+00
 -16.006  0.000E+00  0.000E+00
 -15.991  0.000E+00  0.000E+00
 -15.976  0.000E+00  0.000E+00
 -15.961  0.000E+00  0.000E+00
 -15.946  0.000E+00  0.000E+00
 -15.931  0.000E+00  0.000E+00
 -15.916  0.000E+00  0.000E+00
 -15.901  0.000E+00  0.000E+00
 -15.886  0.000E+00  0.000E+00
 -15.871  0.000E+00  0.000E+00
 -15.856  0.000E+00  0.000E+00
 -15.841  0.000E+00  0.000E+00
 -15.826  0.000E+00  0.000E+00
 -15.811  0.000E+00  0.000E+00
 -15.796  0.000E+00  0.000E+00
 -15.781  0.000E+00  0.000E+00
 -15.766  0.000E+00  0.000E+00
 -15.751  0.000E+00  0.000E+00
 -15.736  0.000E+00  0.000E+00
 -15.721  0.000E+00  0.000E+00
 -15.706  0.000E+00  0.000E+00
 -15.691  0.000E+00  0.000E+00
 -15.676  0.000E+00  0.000E+00
 -15.661  0.000E+00  0.000E+00
 -15.646  0.000E+00  0.000E+00
 -15.631  0.000E+00  0.000E+00
 -15.616  0.000E+00  0.000E+00
 -15.601  0.000E+00  0.000E+00
 -15.586  0.000E+00  0.000E+00
 -15.571  0.000E+00  0.000E+00
 -15.556  0.000E+00  0.000E+00
 -15.541  0.000E+00  0.000E+00
 -15.526  0.000E+00  0.000E+00
 -15.511  0.000E+00  0.000E+00
 -15.496  0.000E+00  0.000E+00
 -15.481  0.000E+00  0.000E+00
 -15.466  0.000E+00  0.000E+00
 -15.451  0.000E+00  0.000E+00
 -15.436  0.000E+00  0.000E+00
 -15.421  0.000E+00  0.000E+00
 -15.406  0.000E+00  0.000E+00
 -15.391  0.000E+00  0.000E+00
 -15.376  0.000E+00  0.000E+00
 -15.361  0.000E+00  0.000E+00
 -15.346  0.000E+00  0.000E+00
 -15.331  0.000E+00  0.000E+00
 -15.316  0.000E+00  0.000E+00
 -15.301  0.000E+00  0.000E+00
 -15.286  0.000E+00  0.000E+00
 -15.271  0.000E+00  0.000E+00
 -15.256  0.000E+00  0.000E+00
 -15.241  0.000E+00  0.000E+00
 -15.226  0.000E+00  0.000E+00
 -15.211  0.000E+00  0.000E+00
 -15.196  0.000E+00  0.000E+00
 -15.181  0.000E+00  0.000E+00
 -15.166  0.000E+00  0.000E+00
 -15.151  0.000E+00  0.000E+00
 -15.136  0.000E+00  0.000E+00
 -15.121  0.000E+00  0.000E+00
 -15.106  0.000E+00  0.000E+00
 -15.091  0.000E+00  0.000E+00
 -15.076  0.000E+00  0.000E+00
 -15.061  0.000E+00  0.000E+00
 -15.046  0.000E+00  0.000E+00
 -15.031  0.000E+00  0.000E+00
 -15.016  0.000E+00  0.000E+00
 -15.001  0.000E+00  0.000E+00
 -14.986  0.000E+00  0.000E+00
 -14.971  0.000E+00  0.000E+00
 -14.956  0.000E+00  0.000E+00
 -14.941  0.000E+00  0.000E+00
 -14.926  0.000E+00  0.000E+00
 -14.911  0.000E+00  0.000E+00
 -14.896  0.000E+00  0.000E+00
 -14.881  0.000E+00  0.000E+00
 -14.866  0.000E+00  0.000E+00
 -14.851  0.000E+00  0.000E+00
 -14.836  0.000E+00  0.000E+00
 -14.821  0.442E-11  0.442E-11
 -14.806  0.767E-11  0.767E-11
 -14.791  0.132E-10  0.132E-10
 -14.776  0.227E-10  0.227E-10
 -14.761  0.387E-10  0.387E-10
 -14.746  0.656E-10  0.656E-10
 -14.731  0.110E-09  0.110E-09
 -14.716  0.185E-09  0.185E-09
 -14.701  0.308E-09  0.308E-09
 -14.686  0.509E-09  0.509E-09
 -14.671  0.837E-09  0.837E-09
 -14.656  0.137E-08  0.137E-08
 -14.641  0.222E-08  0.222E-08
 -14.626  0.358E-08  0.358E-08
 -14.611  0.575E-08  0.575E-08
 -14.596  0.917E-08  0.917E-08
 -14.581  0.145E-07  0.145E-07
 -14.566  0.229E-07  0.229E-07
 -14.551  0.358E-07  0.358E-07
 -14.536  0.558E-07  0.558E-07
 -14.521  0.863E-07  0.863E-07
 -14.506  0.133E-06  0.133E-06
 -14.491  0.203E-06  0.203E-06
 -14.476  0.308E-06  0.308E-06
 -14.461  0.465E-06  0.465E-06
 -14.446  0.698E-06  0.698E-06
 -14.431  0.104E-05  0.104E-05
 -14.416  0.154E-05  0.154E-05
 -14.401  0.227E-05  0.227E-05
 -14.386  0.333E-05  0.333E-05
 -14.371  0.484E-05  0.484E-05
 -14.356  0.701E-05  0.701E-05
 -14.341  0.101E-04  0.101E-04
 -14.326  0.144E-04  0.144E-04
 -14.311  0.205E-04  0.205E-04
 -14.296  0.289E-04  0.289E-04
 -14.281  0.406E-04  0.406E-04
 -14.266  0.566E-04  0.566E-04
 -14.251  0.785E-04  0.785E-04
 -14.236  0.108E-03  0.108E-03
 -14.221  0.148E-03  0.148E-03
 -14.206  0.202E-03  0.202E-03
 -14.191  0.273E-03  0.273E-03
 -14.176  0.367E-03  0.367E-03
 -14.161  0.491E-03  0.491E-03
 -14.146  0.653E-03  0.653E-03
 -14.131  0.862E-03  0.862E-03
 -14.116  0.113E-02  0.113E-02
 -14.101  0.148E-02  0.148E-02
 -14.086  0.192E-02  0.192E-02
 -14.071  0.247E-02  0.247E-02
 -14.056  0.316E-02  0.316E-02
 -14.041  0.403E-02  0.403E-02
 -14.026  0.510E-02  0.510E-02
 -14.011  0.642E-02  0.642E-02
 -13.996  0.803E-02  0.803E-02
 -13.981  0.998E-02  0.998E-02
 -13.966  0.123E-01  0.123E-01
 -13.951  0.151E-01  0.151E-01
 -13.936  0.185E-01  0.185E-01
 -13.921  0.224E-01  0.224E-01
 -13.906  0.270E-01  0.270E-01
 -13.891  0.324E-01  0.324E-01
 -13.876  0.386E-01  0.386E-01
 -13.861  0.457E-01  0.457E-01
 -13.846  0.538E-01  0.538E-01
 -13.831  0.629E-01  0.629E-01
 -13.816  0.732E-01  0.732E-01
 -13.801  0.845E-01  0.845E-01
 -13.786  0.971E-01  0.971E-01
 -13.771  0.111E+00  0.111E+00
 -13.756  0.126E+00  0.126E+00
 -13.741  0.142E+00  0.142E+00
 -13.726  0.159E+00  0.159E+00
 -13.711  0.177E+00  0.177E+00
 -13.696  0.196E+00  0.196E+00
 -13.681  0.216E+00  0.216E+00
 -13.666  0.237E+00  0.237E+00
 -13.651  0.258E+00  0.258E+00
 -13.636  0.278E+00  0.278E+00
 -13.621  0.299E+00  0.299E+00
 -13.606  0.320E+00  0.320E+00
 -13.591  0.339E+00  0.339E+00
 -13.576  0.358E+00  0.358E+00
 -13.561  0.376E+00  0.376E+00
 -13.546  0.392E+00  0.392E+00
 -13.531  0.406E+00  0.406E+00
 -13.516  0.418E+00  0.418E+00
 -13.501  0.428E+00  0.428E+00
 -13.486  0.436E+00  0.436E+00
 -13.471  0.441E+00  0.441E+00
 -13.456  0.444E+00  0.444E+00
 -13.441  0.443E+00  0.443E+00
 -13.426  0.441E+00  0.441E+00
 -13.411  0.435E+00  0.435E+00
 -13.396  0.427E+00  0.427E+00
 -13.381  0.417E+00  0.417E+00
 -13.366  0.405E+00  0.405E+00
 -13.351  0.390E+00  0.390E+00
 -13.336  0.374E+00  0.374E+00
 -13.321  0.356E+00  0.356E+00
 -13.306  0.338E+00  0.338E+00
 -13.291  0.318E+00  0.318E+00
 -13.276  0.298E+00  0.298E+00
 -13.261  0.277E+00  0.277E+00
 -13.246  0.256E+00  0.256E+00
 -13.231  0.236E+00  0.236E+00
 -13.216  0.216E+00  0.216E+00
 -13.201  0.196E+00  0.196E+00
 -13.186  0.177E+00  0.177E+00
 -13.171  0.160E+00  0.160E+00
 -13.156  0.143E+00  0.143E+00
 -13.141  0.127E+00  0.127E+00
 -13.126  0.112E+00  0.112E+00
 -13.111  0.987E-01  0.987E-01
 -13.096  0.864E-01  0.864E-01
 -13.081  0.752E-01  0.752E-01
 -13.066  0.652E-01  0.652E-01
 -13.051  0.562E-01  0.562E-01
 -13.036  0.483E-01  0.483E-01
 -13.021  0.413E-01  0.413E-01
 -13.006  0.351E-01  0.351E-01
 -12.991  0.298E-01  0.298E-01
 -12.976  0.252E-01  0.252E-01
 -12.961  0.213E-01  0.213E-01
 -12.946  0.179E-01  0.179E-01
 -12.931  0.151E-01  0.151E-01
 -12.916  0.127E-01  0.127E-01
 -12.901  0.107E-01  0.107E-01
 -12.886  0.902E-02  0.902E-02
 -12.871  0.764E-02  0.764E-02
 -12.856  0.649E-02  0.649E-02
 -12.841  0.554E-02  0.554E-02
 -12.826  0.477E-02  0.477E-02
 -12.811  0.414E-02  0.414E-02
 -12.796  0.362E-02  0.362E-02
 -12.781  0.321E-02  0.321E-02
 -12.766  0.287E-02  0.287E-02
 -12.751  0.260E-02  0.260E-02
 -12.736  0.238E-02  0.238E-02
 -12.721  0.220E-02  0.220E-02
 -12.706  0.206E-02  0.206E-02
 -12.691  0.195E-02  0.195E-02
 -12.676  0.186E-02  0.186E-02
 -12.661  0.180E-02  0.180E-02
 -12.646  0.175E-02  0.175E-02
 -12.631  0.172E-02  0.172E-02
 -12.616  0.170E-02  0.170E-02
 -12.601  0.169E-02  0.169E-02
 -12.586  0.169E-02  0.169E-02
 -12.571  0.171E-02  0.171E-02
 -12.556  0.173E-02  0.173E-02
 -12.541  0.175E-02  0.175E-02
 -12.526  0.179E-02  0.179E-02
 -12.511  0.183E-02  0.183E-02
 -12.496  0.188E-02  0.188E-02
 -12.481  0.193E-02  0.193E-02
 -12.466  0.199E-02  0.199E-02
 -12.451  0.206E-02  0.206E-02
 -12.436  0.213E-02  0.213E-02
 -12.421  0.220E-02  0.220E-02
 -12.406  0.229E-02  0.229E-02
 -12.391  0.237E-02  0.237E-02
 -12.376  0.247E-02  0.247E-02
 -12.361  0.258E-02  0.258E-02
 -12.346  0.270E-02  0.270E-02
 -12.331  0.283E-02  0.283E-02
 -12.316  0.298E-02  0.298E-02
 -12.301  0.315E-02  0.315E-02
 -12.286  0.335E-02  0.335E-02
 -12.271  0.358E-02  0.358E-02
 -12.256  0.386E-02  0.386E-02
 -12.241  0.418E-02  0.418E-02
 -12.226  0.455E-02  0.455E-02
 -12.211  0.499E-02  0.499E-02
 -12.196  0.551E-02  0.551E-02
 -12.181  0.612E-02  0.612E-02
 -12.166  0.682E-02  0.682E-02
 -12.151  0.764E-02  0.764E-02
 -12.136  0.858E-02  0.858E-02
 -12.121  0.966E-02  0.966E-02
 -12.106  0.109E-01  0.109E-01
 -12.091  0.123E-01  0.123E-01
 -12.076  0.138E-01  0.138E-01
 -12.061  0.156E-01  0.156E-01
 -12.046  0.175E-01  0.175E-01
 -12.031  0.196E-01  0.196E-01
 -12.016  0.220E-01  0.220E-01
 -12.001  0.245E-01  0.245E-01
 -11.986  0.271E-01  0.271E-01
 -11.971  0.300E-01  0.300E-01
 -11.956  0.330E-01  0.330E-01
 -11.941  0.361E-01  0.361E-01
 -11.926  0.394E-01  0.394E-01
 -11.911  0.427E-01  0.427E-01
 -11.896  0.461E-01  0.461E-01
 -11.881  0.495E-01  0.495E-01
 -11.866  0.528E-01  0.528E-01
 -11.851  0.561E-01  0.561E-01
 -11.836  0.593E-01  0.593E-01
 -11.821  0.624E-01  0.624E-01
 -11.806  0.652E-01  0.652E-01
 -11.791  0.679E-01  0.679E-01
 -11.776  0.702E-01  0.702E-01
 -11.761  0.723E-01  0.723E-01
 -11.746  0.741E-01  0.741E-01
 -11.731  0.755E-01  0.755E-01
 -11.716  0.766E-01  0.766E-01
 -11.701  0.773E-01  0.773E-01
 -11.686  0.777E-01  0.777E-01
 -11.671  0.777E-01  0.777E-01
 -11.656  0.774E-01  0.774E-01
 -11.641  0.768E-01  0.768E-01
 -11.626  0.759E-01  0.759E-01
 -11.611  0.747E-01  0.747E-01
 -11.596  0.732E-01  0.732E-01
 -11.581  0.716E-01  0.716E-01
 -11.566  0.699E-01  0.699E-01
 -11.551  0.680E-01  0.680E-01
 -11.536  0.661E-01  0.661E-01
 -11.521  0.641E-01  0.641E-01
 -11.506  0.621E-01  0.621E-01
 -11.491  0.601E-01  0.601E-01
 -11.476  0.582E-01  0.582E-01
 -11.461  0.564E-01  0.564E-01
 -11.446  0.547E-01  0.547E-01
 -11.431  0.531E-01  0.531E-01
 -11.416  0.516E-01  0.516E-01
 -11.401  0.503E-01  0.503E-01
 -11.386  0.491E-01  0.491E-01
 -11.371  0.480E-01  0.480E-01
 -11.356  0.470E-01  0.470E-01
 -11.341  0.462E-01  0.462E-01
 -11.326  0.454E-01  0.454E-01
 -11.311  0.448E-01  0.448E-01
 -11.296  0.442E-01  0.442E-01
 -11.281  0.437E-01  0.437E-01
 -11.266  0.432E-01  0.432E-01
 -11.251  0.427E-01  0.427E-01
 -11.236  0.423E-01  0.423E-01
 -11.221  0.418E-01  0.418E-01
 -11.206  0.413E-01  0.413E-01
 -11.191  0.409E-01  0.409E-01
 -11.176  0.404E-01  0.404E-01
 -11.161  0.399E-01  0.399E-01
 -11.146  0.393E-01  0.393E-01
 -11.131  0.388E-01  0.388E-01
 -11.116  0.382E-01  0.382E-01
 -11.101  0.376E-01  0.376E-01
 -11.086  0.370E-01  0.370E-01
 -11.071  0.364E-01  0.364E-01
 -11.056  0.358E-01  0.358E-01
 -11.041  0.353E-01  0.353E-01
 -11.026  0.347E-01  0.347E-01
 -11.011  0.342E-01  0.342E-01
 -10.996  0.338E-01  0.338E-01
 -10.981  0.334E-01  0.334E-01
 -10.966  0.331E-01  0.331E-01
 -10.951  0.328E-01  0.328E-01
 -10.936  0.326E-01  0.326E-01
 -10.921  0.324E-01  0.324E-01
 -10.906  0.324E-01  0.324E-01
 -10.891  0.323E-01  0.323E-01
 -10.876  0.323E-01  0.323E-01
 -10.861  0.323E-01  0.323E-01
 -10.846  0.324E-01  0.324E-01
 -10.831  0.324E-01  0.324E-01
 -10.816  0.325E-01  0.325E-01
 -10.801  0.325E-01  0.325E-01
 -10.786  0.326E-01  0.326E-01
 -10.771  0.325E-01  0.325E-01
 -10.756  0.325E-01  0.325E-01
 -10.741  0.323E-01  0.323E-01
 -10.726  0.321E-01  0.321E-01
 -10.711  0.319E-01  0.319E-01
 -10.696  0.315E-01  0.315E-01
 -10.681  0.311E-01  0.311E-01
 -10.666  0.305E-01  0.305E-01
 -10.651  0.299E-01  0.299E-01
 -10.636  0.292E-01  0.292E-01
 -10.621  0.285E-01  0.285E-01
 -10.606  0.276E-01  0.276E-01
 -10.591  0.267E-01  0.267E-01
 -10.576  0.258E-01  0.258E-01
 -10.561  0.248E-01  0.248E-01
 -10.546  0.238E-01  0.238E-01
 -10.531  0.227E-01  0.227E-01
 -10.516  0.216E-01  0.216E-01
 -10.501  0.206E-01  0.206E-01
 -10.486  0.195E-01  0.195E-01
 -10.471  0.184E-01  0.184E-01
 -10.456  0.174E-01  0.174E-01
 -10.441  0.164E-01  0.164E-01
 -10.426  0.154E-01  0.154E-01
 -10.411  0.144E-01  0.144E-01
 -10.396  0.135E-01  0.135E-01
 -10.381  0.126E-01  0.126E-01
 -10.366  0.118E-01  0.118E-01
 -10.351  0.110E-01  0.110E-01
 -10.336  0.103E-01  0.103E-01
 -10.321  0.959E-02  0.959E-02
 -10.306  0.893E-02  0.893E-02
 -10.291  0.832E-02  0.832E-02
 -10.276  0.775E-02  0.775E-02
 -10.261  0.721E-02  0.721E-02
 -10.246  0.671E-02  0.671E-02
 -10.231  0.624E-02  0.624E-02
 -10.216  0.580E-02  0.580E-02
 -10.201  0.540E-02  0.540E-02
 -10.186  0.502E-02  0.502E-02
 -10.171  0.467E-02  0.467E-02
 -10.156  0.434E-02  0.434E-02
 -10.141  0.404E-02  0.404E-02
 -10.126  0.376E-02  0.376E-02
 -10.111  0.350E-02  0.350E-02
 -10.096  0.326E-02  0.326E-02
 -10.081  0.305E-02  0.305E-02
 -10.066  0.285E-02  0.285E-02
 -10.051  0.266E-02  0.266E-02
 -10.036  0.250E-02  0.250E-02
 -10.021  0.235E-02  0.235E-02
 -10.006  0.221E-02  0.221E-02
  -9.991  0.209E-02  0.209E-02
  -9.976  0.199E-02  0.199E-02
  -9.961  0.190E-02  0.190E-02
  -9.946  0.181E-02  0.181E-02
  -9.931  0.175E-02  0.175E-02
  -9.916  0.169E-02  0.169E-02
  -9.901  0.164E-02  0.164E-02
  -9.886  0.161E-02  0.161E-02
  -9.871  0.158E-02  0.158E-02
  -9.856  0.156E-02  0.156E-02
  -9.841  0.155E-02  0.155E-02
  -9.826  0.155E-02  0.155E-02
  -9.811  0.156E-02  0.156E-02
  -9.796  0.158E-02  0.158E-02
  -9.781  0.160E-02  0.160E-02
  -9.766  0.163E-02  0.163E-02
  -9.751  0.167E-02  0.167E-02
  -9.736  0.171E-02  0.171E-02
  -9.721  0.176E-02  0.176E-02
  -9.706  0.182E-02  0.182E-02
  -9.691  0.189E-02  0.189E-02
  -9.676  0.196E-02  0.196E-02
  -9.661  0.204E-02  0.204E-02
  -9.646  0.212E-02  0.212E-02
  -9.631  0.221E-02  0.221E-02
  -9.616  0.230E-02  0.230E-02
  -9.601  0.240E-02  0.240E-02
  -9.586  0.250E-02  0.250E-02
  -9.571  0.260E-02  0.260E-02
  -9.556  0.271E-02  0.271E-02
  -9.541  0.281E-02  0.281E-02
  -9.526  0.292E-02  0.292E-02
  -9.511  0.302E-02  0.302E-02
  -9.496  0.313E-02  0.313E-02
  -9.481  0.322E-02  0.322E-02
  -9.466  0.332E-02  0.332E-02
  -9.451  0.340E-02  0.340E-02
  -9.436  0.348E-02  0.348E-02
  -9.421  0.356E-02  0.356E-02
  -9.406  0.362E-02  0.362E-02
  -9.391  0.368E-02  0.368E-02
  -9.376  0.372E-02  0.372E-02
  -9.361  0.375E-02  0.375E-02
  -9.346  0.378E-02  0.378E-02
  -9.331  0.379E-02  0.379E-02
  -9.316  0.379E-02  0.379E-02
  -9.301  0.378E-02  0.378E-02
  -9.286  0.377E-02  0.377E-02
  -9.271  0.374E-02  0.374E-02
  -9.256  0.370E-02  0.370E-02
  -9.241  0.365E-02  0.365E-02
  -9.226  0.360E-02  0.360E-02
  -9.211  0.354E-02  0.354E-02
  -9.196  0.348E-02  0.348E-02
  -9.181  0.341E-02  0.341E-02
  -9.166  0.333E-02  0.333E-02
  -9.151  0.325E-02  0.325E-02
  -9.136  0.317E-02  0.317E-02
  -9.121  0.309E-02  0.309E-02
  -9.106  0.302E-02  0.302E-02
  -9.091  0.294E-02  0.294E-02
  -9.076  0.286E-02  0.286E-02
  -9.061  0.278E-02  0.278E-02
  -9.046  0.271E-02  0.271E-02
  -9.031  0.264E-02  0.264E-02
  -9.016  0.257E-02  0.257E-02
  -9.001  0.251E-02  0.251E-02
  -8.986  0.245E-02  0.245E-02
  -8.971  0.239E-02  0.239E-02
  -8.956  0.234E-02  0.234E-02
  -8.941  0.229E-02  0.229E-02
  -8.926  0.225E-02  0.225E-02
  -8.911  0.220E-02  0.220E-02
  -8.896  0.216E-02  0.216E-02
  -8.881  0.212E-02  0.212E-02
  -8.866  0.209E-02  0.209E-02
  -8.851  0.205E-02  0.205E-02
  -8.836  0.201E-02  0.201E-02
  -8.821  0.197E-02  0.197E-02
  -8.806  0.193E-02  0.193E-02
  -8.791  0.189E-02  0.189E-02
  -8.776  0.185E-02  0.185E-02
  -8.761  0.181E-02  0.181E-02
  -8.746  0.176E-02  0.176E-02
  -8.731  0.171E-02  0.171E-02
  -8.716  0.167E-02  0.167E-02
  -8.701  0.161E-02  0.161E-02
  -8.686  0.156E-02  0.156E-02
  -8.671  0.151E-02  0.151E-02
  -8.656  0.145E-02  0.145E-02
  -8.641  0.139E-02  0.139E-02
  -8.626  0.134E-02  0.134E-02
  -8.611  0.128E-02  0.128E-02
  -8.596  0.122E-02  0.122E-02
  -8.581  0.117E-02  0.117E-02
  -8.566  0.111E-02  0.111E-02
  -8.551  0.106E-02  0.106E-02
  -8.536  0.101E-02  0.101E-02
  -8.521  0.960E-03  0.960E-03
  -8.506  0.914E-03  0.914E-03
  -8.491  0.872E-03  0.872E-03
  -8.476  0.833E-03  0.833E-03
  -8.461  0.797E-03  0.797E-03
  -8.446  0.764E-03  0.764E-03
  -8.431  0.734E-03  0.734E-03
  -8.416  0.707E-03  0.707E-03
  -8.401  0.683E-03  0.683E-03
  -8.386  0.662E-03  0.662E-03
  -8.371  0.643E-03  0.643E-03
  -8.356  0.627E-03  0.627E-03
  -8.341  0.612E-03  0.612E-03
  -8.326  0.600E-03  0.600E-03
  -8.311  0.588E-03  0.588E-03
  -8.296  0.578E-03  0.578E-03
  -8.281  0.569E-03  0.569E-03
  -8.266  0.561E-03  0.561E-03
  -8.251  0.553E-03  0.553E-03
  -8.236  0.545E-03  0.545E-03
  -8.221  0.538E-03  0.538E-03
  -8.206  0.531E-03  0.531E-03
  -8.191  0.524E-03  0.524E-03
  -8.176  0.517E-03  0.517E-03
  -8.161  0.510E-03  0.510E-03
  -8.146  0.503E-03  0.503E-03
  -8.131  0.496E-03  0.496E-03
  -8.116  0.490E-03  0.490E-03
  -8.101  0.483E-03  0.483E-03
  -8.086  0.477E-03  0.477E-03
  -8.071  0.471E-03  0.471E-03
  -8.056  0.466E-03  0.466E-03
  -8.041  0.461E-03  0.461E-03
  -8.026  0.457E-03  0.457E-03
  -8.011  0.454E-03  0.454E-03
  -7.996  0.451E-03  0.451E-03
  -7.981  0.449E-03  0.449E-03
  -7.966  0.447E-03  0.447E-03
  -7.951  0.447E-03  0.447E-03
  -7.936  0.446E-03  0.446E-03
  -7.921  0.447E-03  0.447E-03
  -7.906  0.447E-03  0.447E-03
  -7.891  0.448E-03  0.448E-03
  -7.876  0.449E-03  0.449E-03
  -7.861  0.451E-03  0.451E-03
  -7.846  0.452E-03  0.452E-03
  -7.831  0.452E-03  0.452E-03
  -7.816  0.453E-03  0.453E-03
  -7.801  0.452E-03  0.452E-03
  -7.786  0.451E-03  0.451E-03
  -7.771  0.450E-03  0.450E-03
  -7.756  0.447E-03  0.447E-03
  -7.741  0.444E-03  0.444E-03
  -7.726  0.439E-03  0.439E-03
  -7.711  0.434E-03  0.434E-03
  -7.696  0.428E-03  0.428E-03
  -7.681  0.421E-03  0.421E-03
  -7.666  0.413E-03  0.413E-03
  -7.651  0.404E-03  0.404E-03
  -7.636  0.395E-03  0.395E-03
  -7.621  0.385E-03  0.385E-03
  -7.606  0.375E-03  0.375E-03
  -7.591  0.364E-03  0.364E-03
  -7.576  0.353E-03  0.353E-03
  -7.561  0.342E-03  0.342E-03
  -7.546  0.332E-03  0.332E-03
  -7.531  0.321E-03  0.321E-03
  -7.516  0.311E-03  0.311E-03
  -7.501  0.301E-03  0.301E-03
  -7.486  0.292E-03  0.292E-03
  -7.471  0.283E-03  0.283E-03
  -7.456  0.275E-03  0.275E-03
  -7.441  0.267E-03  0.267E-03
  -7.426  0.260E-03  0.260E-03
  -7.411  0.254E-03  0.254E-03
  -7.396  0.248E-03  0.248E-03
  -7.381  0.242E-03  0.242E-03
  -7.366  0.238E-03  0.238E-03
  -7.351  0.233E-03  0.233E-03
  -7.336  0.230E-03  0.230E-03
  -7.321  0.226E-03  0.226E-03
  -7.306  0.223E-03  0.223E-03
  -7.291  0.221E-03  0.221E-03
  -7.276  0.219E-03  0.219E-03
  -7.261  0.217E-03  0.217E-03
  -7.246  0.216E-03  0.216E-03
  -7.231  0.214E-03  0.214E-03
  -7.216  0.213E-03  0.213E-03
  -7.201  0.213E-03  0.213E-03
  -7.186  0.213E-03  0.213E-03
  -7.171  0.212E-03  0.212E-03
  -7.156  0.213E-03  0.213E-03
  -7.141  0.213E-03  0.213E-03
  -7.126  0.214E-03  0.214E-03
  -7.111  0.214E-03  0.214E-03
  -7.096  0.215E-03  0.215E-03
  -7.081  0.217E-03  0.217E-03
  -7.066  0.218E-03  0.218E-03
  -7.051  0.220E-03  0.220E-03
  -7.036  0.221E-03  0.221E-03
  -7.021  0.223E-03  0.223E-03
  -7.006  0.225E-03  0.225E-03
  -6.991  0.227E-03  0.227E-03
  -6.976  0.228E-03  0.228E-03
  -6.961  0.230E-03  0.230E-03
  -6.946  0.232E-03  0.232E-03
  -6.931  0.234E-03  0.234E-03
  -6.916  0.236E-03  0.236E-03
  -6.901  0.238E-03  0.238E-03
  -6.886  0.240E-03  0.240E-03
  -6.871  0.243E-03  0.243E-03
  -6.856  0.245E-03  0.245E-03
  -6.841  0.248E-03  0.248E-03
  -6.826  0.251E-03  0.251E-03
  -6.811  0.254E-03  0.254E-03
  -6.796  0.259E-03  0.259E-03
  -6.781  0.264E-03  0.264E-03
  -6.766  0.270E-03  0.270E-03
  -6.751  0.277E-03  0.277E-03
  -6.736  0.285E-03  0.285E-03
  -6.721  0.294E-03  0.294E-03
  -6.706  0.305E-03  0.305E-03
  -6.691  0.318E-03  0.318E-03
  -6.676  0.332E-03  0.332E-03
  -6.661  0.348E-03  0.348E-03
  -6.646  0.366E-03  0.366E-03
  -6.631  0.387E-03  0.387E-03
  -6.616  0.409E-03  0.409E-03
  -6.601  0.433E-03  0.433E-03
  -6.586  0.459E-03  0.459E-03
  -6.571  0.486E-03  0.486E-03
  -6.556  0.516E-03  0.516E-03
  -6.541  0.547E-03  0.547E-03
  -6.526  0.579E-03  0.579E-03
  -6.511  0.613E-03  0.613E-03
  -6.496  0.647E-03  0.647E-03
  -6.481  0.682E-03  0.682E-03
  -6.466  0.717E-03  0.717E-03
  -6.451  0.752E-03  0.752E-03
  -6.436  0.786E-03  0.786E-03
  -6.421  0.820E-03  0.820E-03
  -6.406  0.853E-03  0.853E-03
  -6.391  0.884E-03  0.884E-03
  -6.376  0.913E-03  0.913E-03
  -6.361  0.941E-03  0.941E-03
  -6.346  0.966E-03  0.966E-03
  -6.331  0.989E-03  0.989E-03
  -6.316  0.101E-02  0.101E-02
  -6.301  0.103E-02  0.103E-02
  -6.286  0.104E-02  0.104E-02
  -6.271  0.105E-02  0.105E-02
  -6.256  0.106E-02  0.106E-02
  -6.241  0.107E-02  0.107E-02
  -6.226  0.107E-02  0.107E-02
  -6.211  0.107E-02  0.107E-02
  -6.196  0.107E-02  0.107E-02
  -6.181  0.107E-02  0.107E-02
  -6.166  0.106E-02  0.106E-02
  -6.151  0.106E-02  0.106E-02
  -6.136  0.105E-02  0.105E-02
  -6.121  0.104E-02  0.104E-02
  -6.106  0.103E-02  0.103E-02
  -6.091  0.101E-02  0.101E-02
  -6.076  0.999E-03  0.999E-03
  -6.061  0.986E-03  0.986E-03
  -6.046  0.972E-03  0.972E-03
  -6.031  0.958E-03  0.958E-03
  -6.016  0.943E-03  0.943E-03
  -6.001  0.929E-03  0.929E-03
  -5.986  0.915E-03  0.915E-03
  -5.971  0.901E-03  0.901E-03
  -5.956  0.887E-03  0.887E-03
  -5.941  0.873E-03  0.873E-03
  -5.926  0.860E-03  0.860E-03
  -5.911  0.847E-03  0.847E-03
  -5.896  0.835E-03  0.835E-03
  -5.881  0.823E-03  0.823E-03
  -5.866  0.811E-03  0.811E-03
  -5.851  0.799E-03  0.799E-03
  -5.836  0.788E-03  0.788E-03
  -5.821  0.777E-03  0.777E-03
  -5.806  0.767E-03  0.767E-03
  -5.791  0.757E-03  0.757E-03
  -5.776  0.748E-03  0.748E-03
  -5.761  0.738E-03  0.738E-03
  -5.746  0.730E-03  0.730E-03
  -5.731  0.721E-03  0.721E-03
  -5.716  0.713E-03  0.713E-03
  -5.701  0.706E-03  0.706E-03
  -5.686  0.699E-03  0.699E-03
  -5.671  0.693E-03  0.693E-03
  -5.656  0.687E-03  0.687E-03
  -5.641  0.681E-03  0.681E-03
  -5.626  0.676E-03  0.676E-03
  -5.611  0.672E-03  0.672E-03
  -5.596  0.668E-03  0.668E-03
  -5.581  0.664E-03  0.664E-03
  -5.566  0.661E-03  0.661E-03
  -5.551  0.659E-03  0.659E-03
  -5.536  0.656E-03  0.656E-03
  -5.521  0.654E-03  0.654E-03
  -5.506  0.652E-03  0.652E-03
  -5.491  0.650E-03  0.650E-03
  -5.476  0.648E-03  0.648E-03
  -5.461  0.646E-03  0.646E-03
  -5.446  0.644E-03  0.644E-03
  -5.431  0.642E-03  0.642E-03
  -5.416  0.640E-03  0.640E-03
  -5.401  0.638E-03  0.638E-03
  -5.386  0.635E-03  0.635E-03
  -5.371  0.632E-03  0.632E-03
  -5.356  0.629E-03  0.629E-03
  -5.341  0.626E-03  0.626E-03
  -5.326  0.622E-03  0.622E-03
  -5.311  0.617E-03  0.617E-03
  -5.296  0.612E-03  0.612E-03
  -5.281  0.607E-03  0.607E-03
  -5.266  0.601E-03  0.601E-03
  -5.251  0.595E-03  0.595E-03
  -5.236  0.589E-03  0.589E-03
  -5.221  0.581E-03  0.581E-03
  -5.206  0.574E-03  0.574E-03
  -5.191  0.566E-03  0.566E-03
  -5.176  0.557E-03  0.557E-03
  -5.161  0.548E-03  0.548E-03
  -5.146  0.539E-03  0.539E-03
  -5.131  0.529E-03  0.529E-03
  -5.116  0.519E-03  0.519E-03
  -5.101  0.509E-03  0.509E-03
  -5.086  0.498E-03  0.498E-03
  -5.071  0.487E-03  0.487E-03
  -5.056  0.476E-03  0.476E-03
  -5.041  0.465E-03  0.465E-03
  -5.026  0.453E-03  0.453E-03
  -5.011  0.442E-03  0.442E-03
  -4.996  0.430E-03  0.430E-03
  -4.981  0.418E-03  0.418E-03
  -4.966  0.406E-03  0.406E-03
  -4.951  0.394E-03  0.394E-03
  -4.936  0.382E-03  0.382E-03
  -4.921  0.370E-03  0.370E-03
  -4.906  0.358E-03  0.358E-03
  -4.891  0.346E-03  0.346E-03
  -4.876  0.334E-03  0.334E-03
  -4.861  0.322E-03  0.322E-03
  -4.846  0.310E-03  0.310E-03
  -4.831  0.298E-03  0.298E-03
  -4.816  0.287E-03  0.287E-03
  -4.801  0.275E-03  0.275E-03
  -4.786  0.264E-03  0.264E-03
  -4.771  0.252E-03  0.252E-03
  -4.756  0.241E-03  0.241E-03
  -4.741  0.230E-03  0.230E-03
  -4.726  0.219E-03  0.219E-03
  -4.711  0.209E-03  0.209E-03
  -4.696  0.198E-03  0.198E-03
  -4.681  0.188E-03  0.188E-03
  -4.666  0.177E-03  0.177E-03
  -4.651  0.167E-03  0.167E-03
  -4.636  0.158E-03  0.158E-03
  -4.621  0.148E-03  0.148E-03
  -4.606  0.139E-03  0.139E-03
  -4.591  0.130E-03  0.130E-03
  -4.576  0.121E-03  0.121E-03
  -4.561  0.113E-03  0.113E-03
  -4.546  0.105E-03  0.105E-03
  -4.531  0.968E-04  0.968E-04
  -4.516  0.893E-04  0.893E-04
  -4.501  0.822E-04  0.822E-04
  -4.486  0.753E-04  0.753E-04
  -4.471  0.688E-04  0.688E-04
  -4.456  0.627E-04  0.627E-04
  -4.441  0.569E-04  0.569E-04
  -4.426  0.515E-04  0.515E-04
  -4.411  0.464E-04  0.464E-04
  -4.396  0.416E-04  0.416E-04
  -4.381  0.372E-04  0.372E-04
  -4.366  0.332E-04  0.332E-04
  -4.351  0.294E-04  0.294E-04
  -4.336  0.260E-04  0.260E-04
  -4.321  0.229E-04  0.229E-04
  -4.306  0.201E-04  0.201E-04
  -4.291  0.175E-04  0.175E-04
  -4.276  0.152E-04  0.152E-04
  -4.261  0.131E-04  0.131E-04
  -4.246  0.113E-04  0.113E-04
  -4.231  0.970E-05  0.970E-05
  -4.216  0.827E-05  0.827E-05
  -4.201  0.702E-05  0.702E-05
  -4.186  0.593E-05  0.593E-05
  -4.171  0.499E-05  0.499E-05
  -4.156  0.418E-05  0.418E-05
  -4.141  0.348E-05  0.348E-05
  -4.126  0.288E-05  0.288E-05
  -4.111  0.238E-05  0.238E-05
  -4.096  0.195E-05  0.195E-05
  -4.081  0.159E-05  0.159E-05
  -4.066  0.129E-05  0.129E-05
  -4.051  0.105E-05  0.105E-05
  -4.036  0.841E-06  0.841E-06
  -4.021  0.672E-06  0.672E-06
  -4.006  0.535E-06  0.535E-06
  -3.991  0.423E-06  0.423E-06
  -3.976  0.333E-06  0.333E-06
  -3.961  0.261E-06  0.261E-06
  -3.946  0.203E-06  0.203E-06
  -3.931  0.158E-06  0.158E-06
  -3.916  0.122E-06  0.122E-06
  -3.901  0.932E-07  0.932E-07
  -3.886  0.710E-07  0.710E-07
  -3.871  0.539E-07  0.539E-07
  -3.856  0.406E-07  0.406E-07
  -3.841  0.305E-07  0.305E-07
  -3.826  0.227E-07  0.227E-07
  -3.811  0.169E-07  0.169E-07
  -3.796  0.124E-07  0.124E-07
  -3.781  0.913E-08  0.913E-08
  -3.766  0.666E-08  0.666E-08
  -3.751  0.483E-08  0.483E-08
  -3.736  0.349E-08  0.349E-08
  -3.721  0.250E-08  0.250E-08
  -3.706  0.179E-08  0.179E-08
  -3.691  0.127E-08  0.127E-08
  -3.676  0.893E-09  0.893E-09
  -3.661  0.627E-09  0.627E-09
  -3.646  0.437E-09  0.437E-09
  -3.631  0.303E-09  0.303E-09
  -3.616  0.209E-09  0.209E-09
  -3.601  0.143E-09  0.143E-09
  -3.586  0.977E-10  0.977E-10
  -3.571  0.662E-10  0.662E-10
  -3.556  0.446E-10  0.446E-10
  -3.541  0.299E-10  0.299E-10
  -3.526  0.199E-10  0.199E-10
  -3.511  0.132E-10  0.132E-10
  -3.496  0.868E-11  0.868E-11
  -3.481  0.568E-11  0.568E-11
  -3.466  0.370E-11  0.370E-11
  -3.451  0.239E-11  0.239E-11
  -3.436  0.154E-11  0.154E-11
  -3.421  0.985E-12  0.985E-12
  -3.406  0.626E-12  0.626E-12
  -3.391  0.396E-12  0.396E-12
  -3.376  0.249E-12  0.249E-12
  -3.361  0.155E-12  0.155E-12
  -3.346  0.964E-13  0.964E-13
  -3.331  0.595E-13  0.595E-13
  -3.316  0.365E-13  0.365E-13
  -3.301  0.222E-13  0.222E-13
  -3.286  0.134E-13  0.134E-13
  -3.271  0.810E-14  0.810E-14
  -3.256  0.485E-14  0.485E-14
  -3.241  0.281E-14  0.281E-14
  -3.226  0.161E-14  0.161E-14
  -3.211  0.949E-15  0.949E-15
  -3.196  0.557E-15  0.557E-15
  -3.181  0.299E-15  0.299E-15
  -3.166  0.166E-15  0.166E-15
  -3.151  0.956E-16  0.956E-16
  -3.136  0.262E-17  0.262E-17
  -3.121  0.000E+00  0.000E+00
  -3.106  0.000E+00  0.000E+00
  -3.091  0.000E+00  0.000E+00
  -3.076  0.000E+00  0.000E+00
  -3.061  0.000E+00  0.000E+00
  -3.046  0.000E+00  0.000E+00
  -3.031  0.000E+00  0.000E+00
  -3.016  0.000E+00  0.000E+00
  -3.001  0.000E+00  0.000E+00
  -2.986  0.000E+00  0.000E+00
  -2.971  0.000E+00  0.000E+00
  -2.956  0.000E+00  0.000E+00
  -2.941  0.000E+00  0.000E+00
  -2.926  0.000E+00  0.000E+00
  -2.911  0.000E+00  0.000E+00
  -2.896  0.000E+00  0.000E+00
  -2.881  0.000E+00  0.000E+00
  -2.866  0.000E+00  0.000E+00
  -2.851  0.000E+00  0.000E+00
  -2.836  0.000E+00  0.000E+00
  -2.821  0.000E+00  0.000E+00
  -2.806  0.000E+00  0.000E+00
  -2.791  0.000E+00  0.000E+00
  -2.776  0.000E+00  0.000E+00
  -2.761  0.000E+00  0.000E+00
  -2.746  0.000E+00  0.000E+00
  -2.731  0.000E+00  0.000E+00
  -2.716  0.000E+00  0.000E+00
  -2.701  0.000E+00  0.000E+00
  -2.686  0.000E+00  0.000E+00
  -2.671  0.000E+00  0.000E+00
  -2.656  0.000E+00  0.000E+00
  -2.641  0.000E+00  0.000E+00
  -2.626  0.000E+00  0.000E+00
  -2.611  0.000E+00  0.000E+00
  -2.596  0.000E+00  0.000E+00
  -2.581  0.000E+00  0.000E+00
  -2.566  0.000E+00  0.000E+00
  -2.551  0.000E+00  0.000E+00
  -2.536  0.000E+00  0.000E+00
  -2.521  0.000E+00  0.000E+00
  -2.506  0.000E+00  0.000E+00
  -2.491  0.000E+00  0.000E+00
  -2.476  0.000E+00  0.000E+00
  -2.461  0.000E+00  0.000E+00
  -2.446  0.000E+00  0.000E+00
  -2.431  0.000E+00  0.000E+00
  -2.416  0.000E+00  0.000E+00
  -2.401  0.000E+00  0.000E+00
  -2.386  0.000E+00  0.000E+00
  -2.371  0.000E+00  0.000E+00
  -2.356  0.000E+00  0.000E+00
  -2.341  0.000E+00  0.000E+00
  -2.326  0.000E+00  0.000E+00
  -2.311  0.000E+00  0.000E+00
  -2.296  0.000E+00  0.000E+00
  -2.281  0.000E+00  0.000E+00
  -2.266  0.000E+00  0.000E+00
  -2.251  0.000E+00  0.000E+00
  -2.236  0.000E+00  0.000E+00
  -2.221  0.000E+00  0.000E+00
  -2.206  0.000E+00  0.000E+00
  -2.191  0.000E+00  0.000E+00
  -2.176  0.000E+00  0.000E+00
  -2.161  0.000E+00  0.000E+00
  -2.146  0.000E+00  0.000E+00
  -2.131  0.000E+00  0.000E+00
  -2.116  0.000E+00  0.000E+00
  -2.101  0.000E+00  0.000E+00
  -2.086  0.000E+00  0.000E+00
  -2.071  0.000E+00  0.000E+00
  -2.056  0.000E+00  0.000E+00
  -2.041  0.000E+00  0.000E+00
  -2.026  0.000E+00  0.000E+00
  -2.011  0.000E+00  0.000E+00
  -1.996  0.000E+00  0.000E+00
  -1.981  0.000E+00  0.000E+00
  -1.966  0.000E+00  0.000E+00
  -1.951  0.000E+00  0.000E+00
  -1.936  0.000E+00  0.000E+00
  -1.921  0.000E+00  0.000E+00
  -1.906  0.000E+00  0.000E+00
  -1.891  0.000E+00  0.000E+00
  -1.876  0.000E+00  0.000E+00
  -1.861  0.000E+00  0.000E+00
  -1.846  0.000E+00  0.000E+00
  -1.831  0.000E+00  0.000E+00
  -1.816  0.000E+00  0.000E+00
  -1.801  0.000E+00  0.000E+00
  -1.786  0.000E+00  0.000E+00
  -1.771  0.000E+00  0.000E+00
  -1.756  0.000E+00  0.000E+00
  -1.741  0.000E+00  0.000E+00
  -1.726  0.000E+00  0.000E+00
  -1.711  0.000E+00  0.000E+00
  -1.696  0.000E+00  0.000E+00
  -1.681  0.000E+00  0.000E+00
  -1.666  0.000E+00  0.000E+00
  -1.651  0.000E+00  0.000E+00
  -1.636  0.000E+00  0.000E+00
  -1.621  0.000E+00  0.000E+00
  -1.606  0.000E+00  0.000E+00
  -1.591  0.000E+00  0.000E+00
  -1.576  0.000E+00  0.000E+00
  -1.561  0.000E+00  0.000E+00
  -1.546  0.000E+00  0.000E+00
  -1.531  0.000E+00  0.000E+00
  -1.516  0.000E+00  0.000E+00
  -1.501  0.000E+00  0.000E+00
  -1.486  0.000E+00  0.000E+00
  -1.471  0.000E+00  0.000E+00
  -1.456  0.000E+00  0.000E+00
  -1.441  0.000E+00  0.000E+00
  -1.426  0.000E+00  0.000E+00
  -1.411  0.000E+00  0.000E+00
  -1.396  0.000E+00  0.000E+00
  -1.381  0.000E+00  0.000E+00
  -1.366  0.000E+00  0.000E+00
  -1.351  0.000E+00  0.000E+00
  -1.336  0.000E+00  0.000E+00
  -1.321  0.000E+00  0.000E+00
  -1.306  0.000E+00  0.000E+00
  -1.291  0.000E+00  0.000E+00
  -1.276  0.000E+00  0.000E+00
  -1.261  0.000E+00  0.000E+00
  -1.246  0.000E+00  0.000E+00
  -1.231  0.000E+00  0.000E+00
  -1.216  0.000E+00  0.000E+00
  -1.201  0.000E+00  0.000E+00
  -1.186  0.000E+00  0.000E+00
  -1.171  0.000E+00  0.000E+00
  -1.156  0.000E+00  0.000E+00
  -1.141  0.000E+00  0.000E+00
  -1.126  0.000E+00  0.000E+00
  -1.111  0.000E+00  0.000E+00
  -1.096  0.000E+00  0.000E+00
  -1.081  0.000E+00  0.000E+00
  -1.066  0.000E+00  0.000E+00
  -1.051  0.000E+00  0.000E+00
  -1.036  0.000E+00  0.000E+00
  -1.021  0.000E+00  0.000E+00
  -1.006  0.000E+00  0.000E+00
  -0.991  0.000E+00  0.000E+00
  -0.976  0.000E+00  0.000E+00
  -0.961  0.000E+00  0.000E+00
  -0.946  0.000E+00  0.000E+00
  -0.931  0.000E+00  0.000E+00
  -0.916  0.000E+00  0.000E+00
  -0.901  0.000E+00  0.000E+00
  -0.886  0.000E+00  0.000E+00
  -0.871  0.000E+00  0.000E+00
  -0.856  0.000E+00  0.000E+00
  -0.841  0.000E+00  0.000E+00
  -0.826  0.000E+00  0.000E+00
  -0.811  0.000E+00  0.000E+00
  -0.796  0.000E+00  0.000E+00
  -0.781  0.000E+00  0.000E+00
  -0.766  0.000E+00  0.000E+00
  -0.751  0.000E+00  0.000E+00
  -0.736  0.000E+00  0.000E+00
  -0.721  0.000E+00  0.000E+00
  -0.706  0.000E+00  0.000E+00
  -0.691  0.000E+00  0.000E+00
  -0.676  0.000E+00  0.000E+00
  -0.661  0.000E+00  0.000E+00
  -0.646  0.000E+00  0.000E+00
  -0.631  0.000E+00  0.000E+00
  -0.616  0.000E+00  0.000E+00
  -0.601  0.106E-12  0.106E-12
  -0.586  0.242E-12  0.242E-12
  -0.571  0.464E-12  0.464E-12
  -0.556  0.798E-12  0.798E-12
  -0.541  0.143E-11  0.143E-11
  -0.526  0.244E-11  0.244E-11
  -0.511  0.412E-11  0.412E-11
  -0.496  0.697E-11  0.697E-11
  -0.481  0.117E-10  0.117E-10
  -0.466  0.194E-10  0.194E-10
  -0.451  0.320E-10  0.320E-10
  -0.436  0.526E-10  0.526E-10
  -0.421  0.857E-10  0.857E-10
  -0.406  0.139E-09  0.139E-09
  -0.391  0.224E-09  0.224E-09
  -0.376  0.359E-09  0.359E-09
  -0.361  0.571E-09  0.571E-09
  -0.346  0.904E-09  0.904E-09
  -0.331  0.142E-08  0.142E-08
  -0.316  0.222E-08  0.222E-08
  -0.301  0.346E-08  0.346E-08
  -0.286  0.534E-08  0.534E-08
  -0.271  0.820E-08  0.820E-08
  -0.256  0.125E-07  0.125E-07
  -0.241  0.190E-07  0.190E-07
  -0.226  0.287E-07  0.287E-07
  -0.211  0.430E-07  0.430E-07
  -0.196  0.641E-07  0.641E-07
  -0.181  0.949E-07  0.949E-07
  -0.166  0.140E-06  0.140E-06
  -0.151  0.205E-06  0.205E-06
  -0.136  0.298E-06  0.298E-06
  -0.121  0.431E-06  0.431E-06
  -0.106  0.619E-06  0.619E-06
  -0.091  0.885E-06  0.885E-06
  -0.076  0.126E-05  0.126E-05
  -0.061  0.177E-05  0.177E-05
  -0.046  0.249E-05  0.249E-05
  -0.031  0.348E-05  0.348E-05
  -0.016  0.482E-05  0.482E-05
  -0.001  0.665E-05  0.665E-05
   0.014  0.911E-05  0.911E-05
   0.029  0.124E-04  0.124E-04
   0.044  0.168E-04  0.168E-04
   0.059  0.227E-04  0.227E-04
   0.074  0.303E-04  0.303E-04
   0.089  0.403E-04  0.403E-04
   0.104  0.534E-04  0.534E-04
   0.119  0.702E-04  0.702E-04
   0.134  0.917E-04  0.917E-04
   0.149  0.119E-03  0.119E-03
   0.164  0.154E-03  0.154E-03
   0.179  0.198E-03  0.198E-03
   0.194  0.252E-03  0.252E-03
   0.209  0.320E-03  0.320E-03
   0.224  0.404E-03  0.404E-03
   0.239  0.507E-03  0.507E-03
   0.254  0.633E-03  0.633E-03
   0.269  0.784E-03  0.784E-03
   0.284  0.967E-03  0.967E-03
   0.299  0.119E-02  0.119E-02
   0.314  0.144E-02  0.144E-02
   0.329  0.175E-02  0.175E-02
   0.344  0.211E-02  0.211E-02
   0.359  0.252E-02  0.252E-02
   0.374  0.300E-02  0.300E-02
   0.389  0.356E-02  0.356E-02
   0.404  0.419E-02  0.419E-02
   0.419  0.490E-02  0.490E-02
   0.434  0.571E-02  0.571E-02
   0.449  0.660E-02  0.660E-02
   0.464  0.760E-02  0.760E-02
   0.479  0.870E-02  0.870E-02
   0.494  0.990E-02  0.990E-02
   0.509  0.112E-01  0.112E-01
   0.524  0.126E-01  0.126E-01
   0.539  0.141E-01  0.141E-01
   0.554  0.157E-01  0.157E-01
   0.569  0.174E-01  0.174E-01
   0.584  0.192E-01  0.192E-01
   0.599  0.211E-01  0.211E-01
   0.614  0.230E-01  0.230E-01
   0.629  0.249E-01  0.249E-01
   0.644  0.269E-01  0.269E-01
   0.659  0.289E-01  0.289E-01
   0.674  0.309E-01  0.309E-01
   0.689  0.328E-01  0.328E-01
   0.704  0.348E-01  0.348E-01
   0.719  0.367E-01  0.367E-01
   0.734  0.385E-01  0.385E-01
   0.749  0.402E-01  0.402E-01
   0.764  0.418E-01  0.418E-01
   0.779  0.433E-01  0.433E-01
   0.794  0.447E-01  0.447E-01
   0.809  0.460E-01  0.460E-01
   0.824  0.472E-01  0.472E-01
   0.839  0.482E-01  0.482E-01
   0.854  0.491E-01  0.491E-01
   0.869  0.498E-01  0.498E-01
   0.884  0.505E-01  0.505E-01
   0.899  0.510E-01  0.510E-01
   0.914  0.515E-01  0.515E-01
   0.929  0.519E-01  0.519E-01
   0.944  0.522E-01  0.522E-01
   0.959  0.524E-01  0.524E-01
   0.974  0.527E-01  0.527E-01
   0.989  0.528E-01  0.528E-01
   1.004  0.530E-01  0.530E-01
   1.019  0.532E-01  0.532E-01
   1.034  0.534E-01  0.534E-01
   1.049  0.536E-01  0.536E-01
   1.064  0.539E-01  0.539E-01
   1.079  0.542E-01  0.542E-01
   1.094  0.545E-01  0.545E-01
   1.109  0.549E-01  0.549E-01
   1.124  0.554E-01  0.554E-01
   1.139  0.559E-01  0.559E-01
   1.154  0.565E-01  0.565E-01
   1.169  0.571E-01  0.571E-01
   1.184  0.578E-01  0.578E-01
   1.199  0.586E-01  0.586E-01
   1.214  0.593E-01  0.593E-01
   1.229  0.601E-01  0.601E-01
   1.244  0.610E-01  0.610E-01
   1.259  0.619E-01  0.619E-01
   1.274  0.628E-01  0.628E-01
   1.289  0.637E-01  0.637E-01
   1.304  0.647E-01  0.647E-01
   1.319  0.656E-01  0.656E-01
   1.334  0.666E-01  0.666E-01
   1.349  0.676E-01  0.676E-01
   1.364  0.686E-01  0.686E-01
   1.379  0.696E-01  0.696E-01
   1.394  0.707E-01  0.707E-01
   1.409  0.717E-01  0.717E-01
   1.424  0.728E-01  0.728E-01
   1.439  0.739E-01  0.739E-01
   1.454  0.750E-01  0.750E-01
   1.469  0.761E-01  0.761E-01
   1.484  0.773E-01  0.773E-01
   1.499  0.784E-01  0.784E-01
   1.514  0.796E-01  0.796E-01
   1.529  0.808E-01  0.808E-01
   1.544  0.821E-01  0.821E-01
   1.559  0.833E-01  0.833E-01
   1.574  0.845E-01  0.845E-01
   1.589  0.858E-01  0.858E-01
   1.604  0.870E-01  0.870E-01
   1.619  0.883E-01  0.883E-01
   1.634  0.895E-01  0.895E-01
   1.649  0.907E-01  0.907E-01
   1.664  0.920E-01  0.920E-01
   1.679  0.932E-01  0.932E-01
   1.694  0.944E-01  0.944E-01
   1.709  0.956E-01  0.956E-01
   1.724  0.968E-01  0.968E-01
   1.739  0.980E-01  0.980E-01
   1.754  0.993E-01  0.993E-01
   1.769  0.101E+00  0.101E+00
   1.784  0.102E+00  0.102E+00
   1.799  0.103E+00  0.103E+00
   1.814  0.105E+00  0.105E+00
   1.829  0.106E+00  0.106E+00
   1.844  0.108E+00  0.108E+00
   1.859  0.110E+00  0.110E+00
   1.874  0.112E+00  0.112E+00
   1.889  0.114E+00  0.114E+00
   1.904  0.117E+00  0.117E+00
   1.919  0.119E+00  0.119E+00
   1.934  0.122E+00  0.122E+00
   1.949  0.125E+00  0.125E+00
   1.964  0.129E+00  0.129E+00
   1.979  0.132E+00  0.132E+00
   1.994  0.136E+00  0.136E+00
   2.009  0.140E+00  0.140E+00
   2.024  0.144E+00  0.144E+00
   2.039  0.148E+00  0.148E+00
   2.054  0.153E+00  0.153E+00
   2.069  0.157E+00  0.157E+00
   2.084  0.162E+00  0.162E+00
   2.099  0.167E+00  0.167E+00
   2.114  0.172E+00  0.172E+00
   2.129  0.177E+00  0.177E+00
   2.144  0.182E+00  0.182E+00
   2.159  0.187E+00  0.187E+00
   2.174  0.193E+00  0.193E+00
   2.189  0.198E+00  0.198E+00
   2.204  0.204E+00  0.204E+00
   2.219  0.209E+00  0.209E+00
   2.234  0.215E+00  0.215E+00
   2.249  0.221E+00  0.221E+00
   2.264  0.227E+00  0.227E+00
   2.279  0.233E+00  0.233E+00
   2.294  0.239E+00  0.239E+00
   2.309  0.246E+00  0.246E+00
   2.324  0.252E+00  0.252E+00
   2.339  0.259E+00  0.259E+00
   2.354  0.265E+00  0.265E+00
   2.369  0.272E+00  0.272E+00
   2.384  0.279E+00  0.279E+00
   2.399  0.285E+00  0.285E+00
   2.414  0.292E+00  0.292E+00
   2.429  0.298E+00  0.298E+00
   2.444  0.304E+00  0.304E+00
   2.459  0.310E+00  0.310E+00
   2.474  0.315E+00  0.315E+00
   2.489  0.319E+00  0.319E+00
   2.504  0.323E+00  0.323E+00
   2.519  0.326E+00  0.326E+00
   2.534  0.329E+00  0.329E+00
   2.549  0.330E+00  0.330E+00
   2.564  0.331E+00  0.331E+00
   2.579  0.331E+00  0.331E+00
   2.594  0.330E+00  0.330E+00
   2.609  0.328E+00  0.328E+00
   2.624  0.325E+00  0.325E+00
   2.639  0.322E+00  0.322E+00
   2.654  0.318E+00  0.318E+00
   2.669  0.313E+00  0.313E+00
   2.684  0.307E+00  0.307E+00
   2.699  0.301E+00  0.301E+00
   2.714  0.295E+00  0.295E+00
   2.729  0.288E+00  0.288E+00
   2.744  0.281E+00  0.281E+00
   2.759  0.274E+00  0.274E+00
   2.774  0.267E+00  0.267E+00
   2.789  0.260E+00  0.260E+00
   2.804  0.253E+00  0.253E+00
   2.819  0.246E+00  0.246E+00
   2.834  0.240E+00  0.240E+00
   2.849  0.234E+00  0.234E+00
   2.864  0.229E+00  0.229E+00
   2.879  0.223E+00  0.223E+00
   2.894  0.219E+00  0.219E+00
   2.909  0.215E+00  0.215E+00
   2.924  0.211E+00  0.211E+00
   2.939  0.208E+00  0.208E+00
   2.954  0.205E+00  0.205E+00
   2.969  0.203E+00  0.203E+00
   2.984  0.201E+00  0.201E+00
   2.999  0.200E+00  0.200E+00
   3.014  0.199E+00  0.199E+00
   3.029  0.198E+00  0.198E+00
   3.044  0.198E+00  0.198E+00
   3.059  0.198E+00  0.198E+00
   3.074  0.198E+00  0.198E+00
   3.089  0.198E+00  0.198E+00
   3.104  0.199E+00  0.199E+00
   3.119  0.199E+00  0.199E+00
   3.134  0.200E+00  0.200E+00
   3.149  0.201E+00  0.201E+00
   3.164  0.202E+00  0.202E+00
   3.179  0.203E+00  0.203E+00
   3.194  0.205E+00  0.205E+00
   3.209  0.206E+00  0.206E+00
   3.224  0.208E+00  0.208E+00
   3.239  0.209E+00  0.209E+00
   3.254  0.211E+00  0.211E+00
   3.269  0.213E+00  0.213E+00
   3.284  0.216E+00  0.216E+00
   3.299  0.218E+00  0.218E+00
   3.314  0.221E+00  0.221E+00
   3.329  0.224E+00  0.224E+00
   3.344  0.227E+00  0.227E+00
   3.359  0.231E+00  0.231E+00
   3.374  0.235E+00  0.235E+00
   3.389  0.240E+00  0.240E+00
   3.404  0.245E+00  0.245E+00
   3.419  0.250E+00  0.250E+00
   3.434  0.256E+00  0.256E+00
   3.449  0.262E+00  0.262E+00
   3.464  0.268E+00  0.268E+00
   3.479  0.275E+00  0.275E+00
   3.494  0.282E+00  0.282E+00
   3.509  0.289E+00  0.289E+00
   3.524  0.296E+00  0.296E+00
   3.539  0.304E+00  0.304E+00
   3.554  0.312E+00  0.312E+00
   3.569  0.320E+00  0.320E+00
   3.584  0.328E+00  0.328E+00
   3.599  0.336E+00  0.336E+00
   3.614  0.343E+00  0.343E+00
   3.629  0.351E+00  0.351E+00
   3.644  0.358E+00  0.358E+00
   3.659  0.365E+00  0.365E+00
   3.674  0.371E+00  0.371E+00
   3.689  0.376E+00  0.376E+00
   3.704  0.381E+00  0.381E+00
   3.719  0.386E+00  0.386E+00
   3.734  0.389E+00  0.389E+00
   3.749  0.392E+00  0.392E+00
   3.764  0.394E+00  0.394E+00
   3.779  0.395E+00  0.395E+00
   3.794  0.395E+00  0.395E+00
   3.809  0.394E+00  0.394E+00
   3.824  0.393E+00  0.393E+00
   3.839  0.390E+00  0.390E+00
   3.854  0.387E+00  0.387E+00
   3.869  0.383E+00  0.383E+00
   3.884  0.378E+00  0.378E+00
   3.899  0.372E+00  0.372E+00
   3.914  0.366E+00  0.366E+00
   3.929  0.359E+00  0.359E+00
   3.944  0.351E+00  0.351E+00
   3.959  0.343E+00  0.343E+00
   3.974  0.335E+00  0.335E+00
   3.989  0.327E+00  0.327E+00
   4.004  0.318E+00  0.318E+00
   4.019  0.309E+00  0.309E+00
   4.034  0.300E+00  0.300E+00
   4.049  0.291E+00  0.291E+00
   4.064  0.282E+00  0.282E+00
   4.079  0.273E+00  0.273E+00
   4.094  0.265E+00  0.265E+00
   4.109  0.256E+00  0.256E+00
   4.124  0.248E+00  0.248E+00
   4.139  0.241E+00  0.241E+00
   4.154  0.233E+00  0.233E+00
   4.169  0.226E+00  0.226E+00
   4.184  0.219E+00  0.219E+00
   4.199  0.213E+00  0.213E+00
   4.214  0.207E+00  0.207E+00
   4.229  0.202E+00  0.202E+00
   4.244  0.197E+00  0.197E+00
   4.259  0.192E+00  0.192E+00
   4.274  0.188E+00  0.188E+00
   4.289  0.184E+00  0.184E+00
   4.304  0.180E+00  0.180E+00
   4.319  0.177E+00  0.177E+00
   4.334  0.174E+00  0.174E+00
   4.349  0.171E+00  0.171E+00
   4.364  0.169E+00  0.169E+00
   4.379  0.167E+00  0.167E+00
   4.394  0.164E+00  0.164E+00
   4.409  0.162E+00  0.162E+00
   4.424  0.161E+00  0.161E+00
   4.439  0.159E+00  0.159E+00
   4.454  0.157E+00  0.157E+00
   4.469  0.155E+00  0.155E+00
   4.484  0.153E+00  0.153E+00
   4.499  0.152E+00  0.152E+00
   4.514  0.150E+00  0.150E+00
   4.529  0.148E+00  0.148E+00
   4.544  0.146E+00  0.146E+00
   4.559  0.144E+00  0.144E+00
   4.574  0.142E+00  0.142E+00
   4.589  0.140E+00  0.140E+00
   4.604  0.138E+00  0.138E+00
   4.619  0.136E+00  0.136E+00
   4.634  0.133E+00  0.133E+00
   4.649  0.131E+00  0.131E+00
   4.664  0.129E+00  0.129E+00
   4.679  0.126E+00  0.126E+00
   4.694  0.124E+00  0.124E+00
   4.709  0.121E+00  0.121E+00
   4.724  0.119E+00  0.119E+00
   4.739  0.116E+00  0.116E+00
   4.754  0.113E+00  0.113E+00
   4.769  0.111E+00  0.111E+00
   4.784  0.108E+00  0.108E+00
   4.799  0.106E+00  0.106E+00
   4.814  0.103E+00  0.103E+00
   4.829  0.101E+00  0.101E+00
   4.844  0.982E-01  0.982E-01
   4.859  0.958E-01  0.958E-01
   4.874  0.934E-01  0.934E-01
   4.889  0.910E-01  0.910E-01
   4.904  0.888E-01  0.888E-01
   4.919  0.865E-01  0.865E-01
   4.934  0.844E-01  0.844E-01
   4.949  0.824E-01  0.824E-01
   4.964  0.804E-01  0.804E-01
   4.979  0.785E-01  0.785E-01
   4.994  0.768E-01  0.768E-01
   5.009  0.751E-01  0.751E-01
   5.024  0.735E-01  0.735E-01
   5.039  0.720E-01  0.720E-01
   5.054  0.706E-01  0.706E-01
   5.069  0.693E-01  0.693E-01
   5.084  0.681E-01  0.681E-01
   5.099  0.669E-01  0.669E-01
   5.114  0.659E-01  0.659E-01
   5.129  0.649E-01  0.649E-01
   5.144  0.639E-01  0.639E-01
   5.159  0.630E-01  0.630E-01
   5.174  0.621E-01  0.621E-01
   5.189  0.612E-01  0.612E-01
   5.204  0.604E-01  0.604E-01
   5.219  0.595E-01  0.595E-01
   5.234  0.586E-01  0.586E-01
   5.249  0.577E-01  0.577E-01
   5.264  0.568E-01  0.568E-01
   5.279  0.559E-01  0.559E-01
   5.294  0.550E-01  0.550E-01
   5.309  0.540E-01  0.540E-01
   5.324  0.529E-01  0.529E-01
   5.339  0.519E-01  0.519E-01
   5.354  0.508E-01  0.508E-01
   5.369  0.497E-01  0.497E-01
   5.384  0.485E-01  0.485E-01
   5.399  0.473E-01  0.473E-01
   5.414  0.462E-01  0.462E-01
   5.429  0.450E-01  0.450E-01
   5.444  0.438E-01  0.438E-01
   5.459  0.426E-01  0.426E-01
   5.474  0.415E-01  0.415E-01
   5.489  0.404E-01  0.404E-01
   5.504  0.393E-01  0.393E-01
   5.519  0.382E-01  0.382E-01
   5.534  0.372E-01  0.372E-01
   5.549  0.362E-01  0.362E-01
   5.564  0.353E-01  0.353E-01
   5.579  0.344E-01  0.344E-01
   5.594  0.336E-01  0.336E-01
   5.609  0.328E-01  0.328E-01
   5.624  0.321E-01  0.321E-01
   5.639  0.314E-01  0.314E-01
   5.654  0.308E-01  0.308E-01
   5.669  0.303E-01  0.303E-01
   5.684  0.298E-01  0.298E-01
   5.699  0.293E-01  0.293E-01
   5.714  0.289E-01  0.289E-01
   5.729  0.286E-01  0.286E-01
   5.744  0.283E-01  0.283E-01
   5.759  0.280E-01  0.280E-01
   5.774  0.278E-01  0.278E-01
   5.789  0.275E-01  0.275E-01
   5.804  0.274E-01  0.274E-01
   5.819  0.272E-01  0.272E-01
   5.834  0.271E-01  0.271E-01
   5.849  0.269E-01  0.269E-01
   5.864  0.268E-01  0.268E-01
   5.879  0.268E-01  0.268E-01
   5.894  0.267E-01  0.267E-01
   5.909  0.266E-01  0.266E-01
   5.924  0.266E-01  0.266E-01
   5.939  0.265E-01  0.265E-01
   5.954  0.265E-01  0.265E-01
   5.969  0.264E-01  0.264E-01
   5.984  0.264E-01  0.264E-01
   5.999  0.263E-01  0.263E-01
   6.014  0.263E-01  0.263E-01
   6.029  0.262E-01  0.262E-01
   6.044  0.262E-01  0.262E-01
   6.059  0.261E-01  0.261E-01
   6.074  0.261E-01  0.261E-01
   6.089  0.260E-01  0.260E-01
   6.104  0.259E-01  0.259E-01
   6.119  0.259E-01  0.259E-01
   6.134  0.258E-01  0.258E-01
   6.149  0.257E-01  0.257E-01
   6.164  0.256E-01  0.256E-01
   6.179  0.255E-01  0.255E-01
   6.194  0.254E-01  0.254E-01
   6.209  0.253E-01  0.253E-01
   6.224  0.252E-01  0.252E-01
   6.239  0.251E-01  0.251E-01
   6.254  0.250E-01  0.250E-01
   6.269  0.249E-01  0.249E-01
   6.284  0.247E-01  0.247E-01
   6.299  0.246E-01  0.246E-01
   6.314  0.245E-01  0.245E-01
   6.329  0.244E-01  0.244E-01
   6.344  0.243E-01  0.243E-01
   6.359  0.242E-01  0.242E-01
   6.374  0.242E-01  0.242E-01
   6.389  0.241E-01  0.241E-01
   6.404  0.240E-01  0.240E-01
   6.419  0.239E-01  0.239E-01
   6.434  0.238E-01  0.238E-01
   6.449  0.237E-01  0.237E-01
   6.464  0.236E-01  0.236E-01
   6.479  0.235E-01  0.235E-01
   6.494  0.234E-01  0.234E-01
   6.509  0.233E-01  0.233E-01
   6.524  0.232E-01  0.232E-01
   6.539  0.231E-01  0.231E-01
   6.554  0.230E-01  0.230E-01
   6.569  0.228E-01  0.228E-01
   6.584  0.227E-01  0.227E-01
   6.599  0.225E-01  0.225E-01
   6.614  0.223E-01  0.223E-01
   6.629  0.221E-01  0.221E-01
   6.644  0.219E-01  0.219E-01
   6.659  0.217E-01  0.217E-01
   6.674  0.215E-01  0.215E-01
   6.689  0.213E-01  0.213E-01
   6.704  0.211E-01  0.211E-01
   6.719  0.209E-01  0.209E-01
   6.734  0.207E-01  0.207E-01
   6.749  0.204E-01  0.204E-01
   6.764  0.202E-01  0.202E-01
   6.779  0.200E-01  0.200E-01
   6.794  0.198E-01  0.198E-01
   6.809  0.196E-01  0.196E-01
   6.824  0.194E-01  0.194E-01
   6.839  0.192E-01  0.192E-01
   6.854  0.190E-01  0.190E-01
   6.869  0.189E-01  0.189E-01
   6.884  0.187E-01  0.187E-01
   6.899  0.186E-01  0.186E-01
   6.914  0.185E-01  0.185E-01
   6.929  0.184E-01  0.184E-01
   6.944  0.183E-01  0.183E-01
   6.959  0.182E-01  0.182E-01
   6.974  0.181E-01  0.181E-01
   6.989  0.180E-01  0.180E-01
   7.004  0.180E-01  0.180E-01
   7.019  0.179E-01  0.179E-01
   7.034  0.179E-01  0.179E-01
   7.049  0.178E-01  0.178E-01
   7.064  0.178E-01  0.178E-01
   7.079  0.178E-01  0.178E-01
   7.094  0.178E-01  0.178E-01
   7.109  0.177E-01  0.177E-01
   7.124  0.177E-01  0.177E-01
   7.139  0.177E-01  0.177E-01
   7.154  0.177E-01  0.177E-01
   7.169  0.177E-01  0.177E-01
   7.184  0.176E-01  0.176E-01
   7.199  0.176E-01  0.176E-01
   7.214  0.176E-01  0.176E-01
   7.229  0.175E-01  0.175E-01
   7.244  0.175E-01  0.175E-01
   7.259  0.174E-01  0.174E-01
   7.274  0.173E-01  0.173E-01
   7.289  0.172E-01  0.172E-01
   7.304  0.172E-01  0.172E-01
   7.319  0.171E-01  0.171E-01
   7.334  0.170E-01  0.170E-01
   7.349  0.169E-01  0.169E-01
   7.364  0.168E-01  0.168E-01
   7.379  0.167E-01  0.167E-01
   7.394  0.166E-01  0.166E-01
   7.409  0.165E-01  0.165E-01
   7.424  0.164E-01  0.164E-01
   7.439  0.163E-01  0.163E-01
   7.454  0.162E-01  0.162E-01
   7.469  0.161E-01  0.161E-01
   7.484  0.160E-01  0.160E-01
   7.499  0.159E-01  0.159E-01
   7.514  0.159E-01  0.159E-01
   7.529  0.158E-01  0.158E-01
   7.544  0.158E-01  0.158E-01
   7.559  0.157E-01  0.157E-01
   7.574  0.157E-01  0.157E-01
   7.589  0.157E-01  0.157E-01
   7.604  0.158E-01  0.158E-01
   7.619  0.158E-01  0.158E-01
   7.634  0.159E-01  0.159E-01
   7.649  0.159E-01  0.159E-01
   7.664  0.160E-01  0.160E-01
   7.679  0.161E-01  0.161E-01
   7.694  0.162E-01  0.162E-01
   7.709  0.163E-01  0.163E-01
   7.724  0.164E-01  0.164E-01
   7.739  0.166E-01  0.166E-01
   7.754  0.167E-01  0.167E-01
   7.769  0.169E-01  0.169E-01
   7.784  0.170E-01  0.170E-01
   7.799  0.172E-01  0.172E-01
   7.814  0.173E-01  0.173E-01
   7.829  0.174E-01  0.174E-01
   7.844  0.176E-01  0.176E-01
   7.859  0.177E-01  0.177E-01
   7.874  0.178E-01  0.178E-01
   7.889  0.179E-01  0.179E-01
   7.904  0.180E-01  0.180E-01
   7.919  0.181E-01  0.181E-01
   7.934  0.182E-01  0.182E-01
   7.949  0.182E-01  0.182E-01
   7.964  0.182E-01  0.182E-01
   7.979  0.183E-01  0.183E-01
   7.994  0.183E-01  0.183E-01
   8.009  0.183E-01  0.183E-01
   8.024  0.182E-01  0.182E-01
   8.039  0.182E-01  0.182E-01
   8.054  0.182E-01  0.182E-01
   8.069  0.181E-01  0.181E-01
   8.084  0.181E-01  0.181E-01
   8.099  0.180E-01  0.180E-01
   8.114  0.179E-01  0.179E-01
   8.129  0.179E-01  0.179E-01
   8.144  0.178E-01  0.178E-01
   8.159  0.178E-01  0.178E-01
   8.174  0.177E-01  0.177E-01
   8.189  0.177E-01  0.177E-01
   8.204  0.176E-01  0.176E-01
   8.219  0.176E-01  0.176E-01
   8.234  0.176E-01  0.176E-01
   8.249  0.176E-01  0.176E-01
   8.264  0.176E-01  0.176E-01
   8.279  0.176E-01  0.176E-01
   8.294  0.176E-01  0.176E-01
   8.309  0.176E-01  0.176E-01
   8.324  0.176E-01  0.176E-01
   8.339  0.176E-01  0.176E-01
   8.354  0.177E-01  0.177E-01
   8.369  0.177E-01  0.177E-01
   8.384  0.177E-01  0.177E-01
   8.399  0.177E-01  0.177E-01
   8.414  0.177E-01  0.177E-01
   8.429  0.177E-01  0.177E-01
   8.444  0.177E-01  0.177E-01
   8.459  0.177E-01  0.177E-01
   8.474  0.177E-01  0.177E-01
   8.489  0.176E-01  0.176E-01
   8.504  0.176E-01  0.176E-01
   8.519  0.175E-01  0.175E-01
   8.534  0.174E-01  0.174E-01
   8.549  0.173E-01  0.173E-01
   8.564  0.172E-01  0.172E-01
   8.579  0.171E-01  0.171E-01
   8.594  0.170E-01  0.170E-01
   8.609  0.169E-01  0.169E-01
   8.624  0.167E-01  0.167E-01
   8.639  0.166E-01  0.166E-01
   8.654  0.164E-01  0.164E-01
   8.669  0.163E-01  0.163E-01
   8.684  0.161E-01  0.161E-01
   8.699  0.160E-01  0.160E-01
   8.714  0.158E-01  0.158E-01
   8.729  0.157E-01  0.157E-01
   8.744  0.155E-01  0.155E-01
   8.759  0.154E-01  0.154E-01
   8.774  0.152E-01  0.152E-01
   8.789  0.151E-01  0.151E-01
   8.804  0.150E-01  0.150E-01
   8.819  0.149E-01  0.149E-01
   8.834  0.148E-01  0.148E-01
   8.849  0.147E-01  0.147E-01
   8.864  0.147E-01  0.147E-01
   8.879  0.146E-01  0.146E-01
   8.894  0.146E-01  0.146E-01
   8.909  0.145E-01  0.145E-01
   8.924  0.145E-01  0.145E-01
   8.939  0.145E-01  0.145E-01
   8.954  0.145E-01  0.145E-01
   8.969  0.145E-01  0.145E-01
   8.984  0.144E-01  0.144E-01
   8.999  0.144E-01  0.144E-01
   9.014  0.144E-01  0.144E-01
   9.029  0.144E-01  0.144E-01
   9.044  0.144E-01  0.144E-01
   9.059  0.144E-01  0.144E-01
   9.074  0.144E-01  0.144E-01
   9.089  0.144E-01  0.144E-01
   9.104  0.143E-01  0.143E-01
   9.119  0.143E-01  0.143E-01
   9.134  0.142E-01  0.142E-01
   9.149  0.141E-01  0.141E-01
   9.164  0.140E-01  0.140E-01
   9.179  0.139E-01  0.139E-01
   9.194  0.138E-01  0.138E-01
   9.209  0.136E-01  0.136E-01
   9.224  0.135E-01  0.135E-01
   9.239  0.133E-01  0.133E-01
   9.254  0.131E-01  0.131E-01
   9.269  0.128E-01  0.128E-01
   9.284  0.126E-01  0.126E-01
   9.299  0.123E-01  0.123E-01
   9.314  0.120E-01  0.120E-01
   9.329  0.117E-01  0.117E-01
   9.344  0.114E-01  0.114E-01
   9.359  0.110E-01  0.110E-01
   9.374  0.107E-01  0.107E-01
   9.389  0.103E-01  0.103E-01
   9.404  0.991E-02  0.991E-02
   9.419  0.951E-02  0.951E-02
   9.434  0.911E-02  0.911E-02
   9.449  0.869E-02  0.869E-02
   9.464  0.827E-02  0.827E-02
   9.479  0.785E-02  0.785E-02
   9.494  0.742E-02  0.742E-02
   9.509  0.700E-02  0.700E-02
   9.524  0.658E-02  0.658E-02
   9.539  0.616E-02  0.616E-02
   9.554  0.575E-02  0.575E-02
   9.569  0.535E-02  0.535E-02
   9.584  0.495E-02  0.495E-02
   9.599  0.458E-02  0.458E-02
   9.614  0.421E-02  0.421E-02
   9.629  0.386E-02  0.386E-02
   9.644  0.352E-02  0.352E-02
   9.659  0.320E-02  0.320E-02
   9.674  0.290E-02  0.290E-02
   9.689  0.262E-02  0.262E-02
   9.704  0.235E-02  0.235E-02
   9.719  0.210E-02  0.210E-02
   9.734  0.187E-02  0.187E-02
   9.749  0.166E-02  0.166E-02
   9.764  0.147E-02  0.147E-02
   9.779  0.129E-02  0.129E-02
   9.794  0.113E-02  0.113E-02
   9.809  0.986E-03  0.986E-03
   9.824  0.855E-03  0.855E-03
   9.839  0.739E-03  0.739E-03
   9.854  0.636E-03  0.636E-03
   9.869  0.544E-03  0.544E-03
   9.884  0.464E-03  0.464E-03
   9.899  0.393E-03  0.393E-03
   9.914  0.332E-03  0.332E-03
   9.929  0.279E-03  0.279E-03
   9.944  0.233E-03  0.233E-03
   9.959  0.194E-03  0.194E-03
   9.974  0.161E-03  0.161E-03
   9.989  0.132E-03  0.132E-03
  10.004  0.109E-03  0.109E-03
  10.019  0.887E-04  0.887E-04
  10.034  0.720E-04  0.720E-04
  10.049  0.582E-04  0.582E-04
  10.064  0.468E-04  0.468E-04
  10.079  0.374E-04  0.374E-04
  10.094  0.298E-04  0.298E-04
  10.109  0.236E-04  0.236E-04
  10.124  0.186E-04  0.186E-04
  10.139  0.146E-04  0.146E-04
  10.154  0.113E-04  0.113E-04
  10.169  0.880E-05  0.880E-05
  10.184  0.679E-05  0.679E-05
  10.199  0.521E-05  0.521E-05
  10.214  0.398E-05  0.398E-05
  10.229  0.302E-05  0.302E-05
  10.244  0.228E-05  0.228E-05
  10.259  0.172E-05  0.172E-05
  10.274  0.128E-05  0.128E-05
  10.289  0.953E-06  0.953E-06
  10.304  0.705E-06  0.705E-06
  10.319  0.518E-06  0.518E-06
  10.334  0.379E-06  0.379E-06
  10.349  0.276E-06  0.276E-06
  10.364  0.200E-06  0.200E-06
  10.379  0.144E-06  0.144E-06
  10.394  0.103E-06  0.103E-06
  10.409  0.732E-07  0.732E-07
  10.424  0.518E-07  0.518E-07
  10.439  0.364E-07  0.364E-07
  10.454  0.255E-07  0.255E-07
