# E (eV)   ldos(E)   pdos(E)   
 -27.811  0.829E-06  0.829E-06
 -27.796  0.115E-05  0.115E-05
 -27.781  0.159E-05  0.159E-05
 -27.766  0.218E-05  0.218E-05
 -27.751  0.297E-05  0.297E-05
 -27.736  0.402E-05  0.402E-05
 -27.721  0.541E-05  0.541E-05
 -27.706  0.724E-05  0.724E-05
 -27.691  0.963E-05  0.963E-05
 -27.676  0.127E-04  0.127E-04
 -27.661  0.167E-04  0.167E-04
 -27.646  0.218E-04  0.218E-04
 -27.631  0.283E-04  0.283E-04
 -27.616  0.366E-04  0.366E-04
 -27.601  0.469E-04  0.469E-04
 -27.586  0.598E-04  0.598E-04
 -27.571  0.757E-04  0.757E-04
 -27.556  0.953E-04  0.953E-04
 -27.541  0.119E-03  0.119E-03
 -27.526  0.148E-03  0.148E-03
 -27.511  0.184E-03  0.184E-03
 -27.496  0.226E-03  0.226E-03
 -27.481  0.276E-03  0.276E-03
 -27.466  0.335E-03  0.335E-03
 -27.451  0.404E-03  0.404E-03
 -27.436  0.484E-03  0.484E-03
 -27.421  0.577E-03  0.577E-03
 -27.406  0.684E-03  0.684E-03
 -27.391  0.806E-03  0.806E-03
 -27.376  0.943E-03  0.943E-03
 -27.361  0.110E-02  0.110E-02
 -27.346  0.127E-02  0.127E-02
 -27.331  0.146E-02  0.146E-02
 -27.316  0.167E-02  0.167E-02
 -27.301  0.189E-02  0.189E-02
 -27.286  0.214E-02  0.214E-02
 -27.271  0.240E-02  0.240E-02
 -27.256  0.267E-02  0.267E-02
 -27.241  0.296E-02  0.296E-02
 -27.226  0.326E-02  0.326E-02
 -27.211  0.357E-02  0.357E-02
 -27.196  0.389E-02  0.389E-02
 -27.181  0.421E-02  0.421E-02
 -27.166  0.452E-02  0.452E-02
 -27.151  0.483E-02  0.483E-02
 -27.136  0.513E-02  0.513E-02
 -27.121  0.542E-02  0.542E-02
 -27.106  0.569E-02  0.569E-02
 -27.091  0.593E-02  0.593E-02
 -27.076  0.615E-02  0.615E-02
 -27.061  0.633E-02  0.633E-02
 -27.046  0.649E-02  0.649E-02
 -27.031  0.660E-02  0.660E-02
 -27.016  0.668E-02  0.668E-02
 -27.001  0.672E-02  0.672E-02
 -26.986  0.672E-02  0.672E-02
 -26.971  0.667E-02  0.667E-02
 -26.956  0.659E-02  0.659E-02
 -26.941  0.647E-02  0.647E-02
 -26.926  0.631E-02  0.631E-02
 -26.911  0.612E-02  0.612E-02
 -26.896  0.589E-02  0.589E-02
 -26.881  0.565E-02  0.565E-02
 -26.866  0.538E-02  0.538E-02
 -26.851  0.509E-02  0.509E-02
 -26.836  0.479E-02  0.479E-02
 -26.821  0.447E-02  0.447E-02
 -26.806  0.416E-02  0.416E-02
 -26.791  0.384E-02  0.384E-02
 -26.776  0.352E-02  0.352E-02
 -26.761  0.322E-02  0.322E-02
 -26.746  0.292E-02  0.292E-02
 -26.731  0.263E-02  0.263E-02
 -26.716  0.236E-02  0.236E-02
 -26.701  0.210E-02  0.210E-02
 -26.686  0.186E-02  0.186E-02
 -26.671  0.163E-02  0.163E-02
 -26.656  0.143E-02  0.143E-02
 -26.641  0.124E-02  0.124E-02
 -26.626  0.107E-02  0.107E-02
 -26.611  0.921E-03  0.921E-03
 -26.596  0.786E-03  0.786E-03
 -26.581  0.667E-03  0.667E-03
 -26.566  0.562E-03  0.562E-03
 -26.551  0.471E-03  0.471E-03
 -26.536  0.392E-03  0.392E-03
 -26.521  0.325E-03  0.325E-03
 -26.506  0.267E-03  0.267E-03
 -26.491  0.219E-03  0.219E-03
 -26.476  0.178E-03  0.178E-03
 -26.461  0.144E-03  0.144E-03
 -26.446  0.115E-03  0.115E-03
 -26.431  0.921E-04  0.921E-04
 -26.416  0.731E-04  0.731E-04
 -26.401  0.576E-04  0.576E-04
 -26.386  0.452E-04  0.452E-04
 -26.371  0.352E-04  0.352E-04
 -26.356  0.272E-04  0.272E-04
 -26.341  0.210E-04  0.210E-04
 -26.326  0.160E-04  0.160E-04
 -26.311  0.122E-04  0.122E-04
 -26.296  0.922E-05  0.922E-05
 -26.281  0.692E-05  0.692E-05
 -26.266  0.517E-05  0.517E-05
 -26.251  0.384E-05  0.384E-05
 -26.236  0.283E-05  0.283E-05
 -26.221  0.207E-05  0.207E-05
 -26.206  0.151E-05  0.151E-05
 -26.191  0.110E-05  0.110E-05
 -26.176  0.788E-06  0.788E-06
 -26.161  0.564E-06  0.564E-06
 -26.146  0.401E-06  0.401E-06
 -26.131  0.284E-06  0.284E-06
 -26.116  0.199E-06  0.199E-06
 -26.101  0.139E-06  0.139E-06
 -26.086  0.966E-07  0.966E-07
 -26.071  0.666E-07  0.666E-07
 -26.056  0.457E-07  0.457E-07
 -26.041  0.311E-07  0.311E-07
 -26.026  0.211E-07  0.211E-07
 -26.011  0.142E-07  0.142E-07
 -25.996  0.951E-08  0.951E-08
 -25.981  0.633E-08  0.633E-08
 -25.966  0.418E-08  0.418E-08
 -25.951  0.275E-08  0.275E-08
 -25.936  0.180E-08  0.180E-08
 -25.921  0.117E-08  0.117E-08
 -25.906  0.752E-09  0.752E-09
 -25.891  0.482E-09  0.482E-09
 -25.876  0.308E-09  0.308E-09
 -25.861  0.195E-09  0.195E-09
 -25.846  0.123E-09  0.123E-09
 -25.831  0.768E-10  0.768E-10
 -25.816  0.478E-10  0.478E-10
 -25.801  0.296E-10  0.296E-10
 -25.786  0.182E-10  0.182E-10
 -25.771  0.111E-10  0.111E-10
 -25.756  0.674E-11  0.674E-11
 -25.741  0.407E-11  0.407E-11
 -25.726  0.244E-11  0.244E-11
 -25.711  0.146E-11  0.146E-11
 -25.696  0.863E-12  0.863E-12
 -25.681  0.508E-12  0.508E-12
 -25.666  0.298E-12  0.298E-12
 -25.651  0.173E-12  0.173E-12
 -25.636  0.100E-12  0.100E-12
 -25.621  0.000E+00  0.000E+00
 -25.606  0.000E+00  0.000E+00
 -25.591  0.000E+00  0.000E+00
 -25.576  0.000E+00  0.000E+00
 -25.561  0.000E+00  0.000E+00
 -25.546  0.000E+00  0.000E+00
 -25.531  0.000E+00  0.000E+00
 -25.516  0.000E+00  0.000E+00
 -25.501  0.000E+00  0.000E+00
 -25.486  0.000E+00  0.000E+00
 -25.471  0.000E+00  0.000E+00
 -25.456  0.000E+00  0.000E+00
 -25.441  0.000E+00  0.000E+00
 -25.426  0.000E+00  0.000E+00
 -25.411  0.000E+00  0.000E+00
 -25.396  0.000E+00  0.000E+00
 -25.381  0.000E+00  0.000E+00
 -25.366  0.000E+00  0.000E+00
 -25.351  0.000E+00  0.000E+00
 -25.336  0.000E+00  0.000E+00
 -25.321  0.000E+00  0.000E+00
 -25.306  0.000E+00  0.000E+00
 -25.291  0.000E+00  0.000E+00
 -25.276  0.000E+00  0.000E+00
 -25.261  0.000E+00  0.000E+00
 -25.246  0.249E-12  0.249E-12
 -25.231  0.520E-12  0.520E-12
 -25.216  0.951E-12  0.951E-12
 -25.201  0.173E-11  0.173E-11
 -25.186  0.307E-11  0.307E-11
 -25.171  0.535E-11  0.535E-11
 -25.156  0.912E-11  0.912E-11
 -25.141  0.153E-10  0.153E-10
 -25.126  0.256E-10  0.256E-10
 -25.111  0.424E-10  0.424E-10
 -25.096  0.699E-10  0.699E-10
 -25.081  0.115E-09  0.115E-09
 -25.066  0.187E-09  0.187E-09
 -25.051  0.302E-09  0.302E-09
 -25.036  0.486E-09  0.486E-09
 -25.021  0.778E-09  0.778E-09
 -25.006  0.124E-08  0.124E-08
 -24.991  0.196E-08  0.196E-08
 -24.976  0.307E-08  0.307E-08
 -24.961  0.480E-08  0.480E-08
 -24.946  0.745E-08  0.745E-08
 -24.931  0.115E-07  0.115E-07
 -24.916  0.177E-07  0.177E-07
 -24.901  0.269E-07  0.269E-07
 -24.886  0.408E-07  0.408E-07
 -24.871  0.615E-07  0.615E-07
 -24.856  0.922E-07  0.922E-07
 -24.841  0.137E-06  0.137E-06
 -24.826  0.203E-06  0.203E-06
 -24.811  0.299E-06  0.299E-06
 -24.796  0.437E-06  0.437E-06
 -24.781  0.636E-06  0.636E-06
 -24.766  0.920E-06  0.920E-06
 -24.751  0.132E-05  0.132E-05
 -24.736  0.189E-05  0.189E-05
 -24.721  0.268E-05  0.268E-05
 -24.706  0.379E-05  0.379E-05
 -24.691  0.531E-05  0.531E-05
 -24.676  0.741E-05  0.741E-05
 -24.661  0.103E-04  0.103E-04
 -24.646  0.142E-04  0.142E-04
 -24.631  0.194E-04  0.194E-04
 -24.616  0.265E-04  0.265E-04
 -24.601  0.358E-04  0.358E-04
 -24.586  0.482E-04  0.482E-04
 -24.571  0.646E-04  0.646E-04
 -24.556  0.859E-04  0.859E-04
 -24.541  0.114E-03  0.114E-03
 -24.526  0.149E-03  0.149E-03
 -24.511  0.195E-03  0.195E-03
 -24.496  0.254E-03  0.254E-03
 -24.481  0.328E-03  0.328E-03
 -24.466  0.421E-03  0.421E-03
 -24.451  0.538E-03  0.538E-03
 -24.436  0.683E-03  0.683E-03
 -24.421  0.862E-03  0.862E-03
 -24.406  0.108E-02  0.108E-02
 -24.391  0.135E-02  0.135E-02
 -24.376  0.167E-02  0.167E-02
 -24.361  0.206E-02  0.206E-02
 -24.346  0.253E-02  0.253E-02
 -24.331  0.308E-02  0.308E-02
 -24.316  0.373E-02  0.373E-02
 -24.301  0.450E-02  0.450E-02
 -24.286  0.539E-02  0.539E-02
 -24.271  0.641E-02  0.641E-02
 -24.256  0.759E-02  0.759E-02
 -24.241  0.893E-02  0.893E-02
 -24.226  0.105E-01  0.105E-01
 -24.211  0.122E-01  0.122E-01
 -24.196  0.141E-01  0.141E-01
 -24.181  0.162E-01  0.162E-01
 -24.166  0.185E-01  0.185E-01
 -24.151  0.210E-01  0.210E-01
 -24.136  0.238E-01  0.238E-01
 -24.121  0.267E-01  0.267E-01
 -24.106  0.299E-01  0.299E-01
 -24.091  0.332E-01  0.332E-01
 -24.076  0.367E-01  0.367E-01
 -24.061  0.403E-01  0.403E-01
 -24.046  0.441E-01  0.441E-01
 -24.031  0.479E-01  0.479E-01
 -24.016  0.518E-01  0.518E-01
 -24.001  0.556E-01  0.556E-01
 -23.986  0.594E-01  0.594E-01
 -23.971  0.632E-01  0.632E-01
 -23.956  0.668E-01  0.668E-01
 -23.941  0.702E-01  0.702E-01
 -23.926  0.734E-01  0.734E-01
 -23.911  0.763E-01  0.763E-01
 -23.896  0.789E-01  0.789E-01
 -23.881  0.812E-01  0.812E-01
 -23.866  0.831E-01  0.831E-01
 -23.851  0.846E-01  0.846E-01
 -23.836  0.856E-01  0.856E-01
 -23.821  0.863E-01  0.863E-01
 -23.806  0.865E-01  0.865E-01
 -23.791  0.863E-01  0.863E-01
 -23.776  0.857E-01  0.857E-01
 -23.761  0.846E-01  0.846E-01
 -23.746  0.832E-01  0.832E-01
 -23.731  0.815E-01  0.815E-01
 -23.716  0.794E-01  0.794E-01
 -23.701  0.771E-01  0.771E-01
 -23.686  0.745E-01  0.745E-01
 -23.671  0.717E-01  0.717E-01
 -23.656  0.688E-01  0.688E-01
 -23.641  0.658E-01  0.658E-01
 -23.626  0.627E-01  0.627E-01
 -23.611  0.596E-01  0.596E-01
 -23.596  0.565E-01  0.565E-01
 -23.581  0.535E-01  0.535E-01
 -23.566  0.505E-01  0.505E-01
 -23.551  0.477E-01  0.477E-01
 -23.536  0.450E-01  0.450E-01
 -23.521  0.425E-01  0.425E-01
 -23.506  0.401E-01  0.401E-01
 -23.491  0.380E-01  0.380E-01
 -23.476  0.360E-01  0.360E-01
 -23.461  0.342E-01  0.342E-01
 -23.446  0.326E-01  0.326E-01
 -23.431  0.313E-01  0.313E-01
 -23.416  0.301E-01  0.301E-01
 -23.401  0.292E-01  0.292E-01
 -23.386  0.284E-01  0.284E-01
 -23.371  0.279E-01  0.279E-01
 -23.356  0.275E-01  0.275E-01
 -23.341  0.274E-01  0.274E-01
 -23.326  0.274E-01  0.274E-01
 -23.311  0.277E-01  0.277E-01
 -23.296  0.281E-01  0.281E-01
 -23.281  0.288E-01  0.288E-01
 -23.266  0.296E-01  0.296E-01
 -23.251  0.306E-01  0.306E-01
 -23.236  0.318E-01  0.318E-01
 -23.221  0.332E-01  0.332E-01
 -23.206  0.348E-01  0.348E-01
 -23.191  0.365E-01  0.365E-01
 -23.176  0.385E-01  0.385E-01
 -23.161  0.405E-01  0.405E-01
 -23.146  0.428E-01  0.428E-01
 -23.131  0.452E-01  0.452E-01
 -23.116  0.477E-01  0.477E-01
 -23.101  0.503E-01  0.503E-01
 -23.086  0.530E-01  0.530E-01
 -23.071  0.558E-01  0.558E-01
 -23.056  0.587E-01  0.587E-01
 -23.041  0.616E-01  0.616E-01
 -23.026  0.646E-01  0.646E-01
 -23.011  0.675E-01  0.675E-01
 -22.996  0.704E-01  0.704E-01
 -22.981  0.733E-01  0.733E-01
 -22.966  0.761E-01  0.761E-01
 -22.951  0.788E-01  0.788E-01
 -22.936  0.815E-01  0.815E-01
 -22.921  0.840E-01  0.840E-01
 -22.906  0.864E-01  0.864E-01
 -22.891  0.887E-01  0.887E-01
 -22.876  0.909E-01  0.909E-01
 -22.861  0.929E-01  0.929E-01
 -22.846  0.947E-01  0.947E-01
 -22.831  0.964E-01  0.964E-01
 -22.816  0.980E-01  0.980E-01
 -22.801  0.994E-01  0.994E-01
 -22.786  0.101E+00  0.101E+00
 -22.771  0.102E+00  0.102E+00
 -22.756  0.103E+00  0.103E+00
 -22.741  0.104E+00  0.104E+00
 -22.726  0.104E+00  0.104E+00
 -22.711  0.105E+00  0.105E+00
 -22.696  0.106E+00  0.106E+00
 -22.681  0.106E+00  0.106E+00
 -22.666  0.106E+00  0.106E+00
 -22.651  0.106E+00  0.106E+00
 -22.636  0.107E+00  0.107E+00
 -22.621  0.107E+00  0.107E+00
 -22.606  0.106E+00  0.106E+00
 -22.591  0.106E+00  0.106E+00
 -22.576  0.106E+00  0.106E+00
 -22.561  0.106E+00  0.106E+00
 -22.546  0.105E+00  0.105E+00
 -22.531  0.104E+00  0.104E+00
 -22.516  0.104E+00  0.104E+00
 -22.501  0.103E+00  0.103E+00
 -22.486  0.102E+00  0.102E+00
 -22.471  0.101E+00  0.101E+00
 -22.456  0.996E-01  0.996E-01
 -22.441  0.983E-01  0.983E-01
 -22.426  0.969E-01  0.969E-01
 -22.411  0.953E-01  0.953E-01
 -22.396  0.937E-01  0.937E-01
 -22.381  0.919E-01  0.919E-01
 -22.366  0.900E-01  0.900E-01
 -22.351  0.880E-01  0.880E-01
 -22.336  0.858E-01  0.858E-01
 -22.321  0.836E-01  0.836E-01
 -22.306  0.813E-01  0.813E-01
 -22.291  0.790E-01  0.790E-01
 -22.276  0.765E-01  0.765E-01
 -22.261  0.740E-01  0.740E-01
 -22.246  0.715E-01  0.715E-01
 -22.231  0.689E-01  0.689E-01
 -22.216  0.662E-01  0.662E-01
 -22.201  0.635E-01  0.635E-01
 -22.186  0.609E-01  0.609E-01
 -22.171  0.582E-01  0.582E-01
 -22.156  0.555E-01  0.555E-01
 -22.141  0.529E-01  0.529E-01
 -22.126  0.503E-01  0.503E-01
 -22.111  0.478E-01  0.478E-01
 -22.096  0.453E-01  0.453E-01
 -22.081  0.428E-01  0.428E-01
 -22.066  0.405E-01  0.405E-01
 -22.051  0.382E-01  0.382E-01
 -22.036  0.361E-01  0.361E-01
 -22.021  0.340E-01  0.340E-01
 -22.006  0.320E-01  0.320E-01
 -21.991  0.302E-01  0.302E-01
 -21.976  0.284E-01  0.284E-01
 -21.961  0.268E-01  0.268E-01
 -21.946  0.253E-01  0.253E-01
 -21.931  0.239E-01  0.239E-01
 -21.916  0.226E-01  0.226E-01
 -21.901  0.214E-01  0.214E-01
 -21.886  0.203E-01  0.203E-01
 -21.871  0.193E-01  0.193E-01
 -21.856  0.184E-01  0.184E-01
 -21.841  0.176E-01  0.176E-01
 -21.826  0.169E-01  0.169E-01
 -21.811  0.162E-01  0.162E-01
 -21.796  0.157E-01  0.157E-01
 -21.781  0.151E-01  0.151E-01
 -21.766  0.146E-01  0.146E-01
 -21.751  0.142E-01  0.142E-01
 -21.736  0.138E-01  0.138E-01
 -21.721  0.134E-01  0.134E-01
 -21.706  0.131E-01  0.131E-01
 -21.691  0.127E-01  0.127E-01
 -21.676  0.124E-01  0.124E-01
 -21.661  0.121E-01  0.121E-01
 -21.646  0.118E-01  0.118E-01
 -21.631  0.115E-01  0.115E-01
 -21.616  0.112E-01  0.112E-01
 -21.601  0.108E-01  0.108E-01
 -21.586  0.105E-01  0.105E-01
 -21.571  0.102E-01  0.102E-01
 -21.556  0.984E-02  0.984E-02
 -21.541  0.949E-02  0.949E-02
 -21.526  0.915E-02  0.915E-02
 -21.511  0.879E-02  0.879E-02
 -21.496  0.844E-02  0.844E-02
 -21.481  0.808E-02  0.808E-02
 -21.466  0.772E-02  0.772E-02
 -21.451  0.737E-02  0.737E-02
 -21.436  0.702E-02  0.702E-02
 -21.421  0.667E-02  0.667E-02
 -21.406  0.633E-02  0.633E-02
 -21.391  0.599E-02  0.599E-02
 -21.376  0.566E-02  0.566E-02
 -21.361  0.535E-02  0.535E-02
 -21.346  0.504E-02  0.504E-02
 -21.331  0.474E-02  0.474E-02
 -21.316  0.445E-02  0.445E-02
 -21.301  0.418E-02  0.418E-02
 -21.286  0.391E-02  0.391E-02
 -21.271  0.366E-02  0.366E-02
 -21.256  0.342E-02  0.342E-02
 -21.241  0.318E-02  0.318E-02
 -21.226  0.296E-02  0.296E-02
 -21.211  0.275E-02  0.275E-02
 -21.196  0.255E-02  0.255E-02
 -21.181  0.235E-02  0.235E-02
 -21.166  0.217E-02  0.217E-02
 -21.151  0.200E-02  0.200E-02
 -21.136  0.183E-02  0.183E-02
 -21.121  0.167E-02  0.167E-02
 -21.106  0.153E-02  0.153E-02
 -21.091  0.139E-02  0.139E-02
 -21.076  0.125E-02  0.125E-02
 -21.061  0.113E-02  0.113E-02
 -21.046  0.102E-02  0.102E-02
 -21.031  0.908E-03  0.908E-03
 -21.016  0.809E-03  0.809E-03
 -21.001  0.717E-03  0.717E-03
 -20.986  0.633E-03  0.633E-03
 -20.971  0.556E-03  0.556E-03
 -20.956  0.486E-03  0.486E-03
 -20.941  0.423E-03  0.423E-03
 -20.926  0.366E-03  0.366E-03
 -20.911  0.316E-03  0.316E-03
 -20.896  0.270E-03  0.270E-03
 -20.881  0.230E-03  0.230E-03
 -20.866  0.195E-03  0.195E-03
 -20.851  0.165E-03  0.165E-03
 -20.836  0.138E-03  0.138E-03
 -20.821  0.115E-03  0.115E-03
 -20.806  0.956E-04  0.956E-04
 -20.791  0.788E-04  0.788E-04
 -20.776  0.646E-04  0.646E-04
 -20.761  0.527E-04  0.527E-04
 -20.746  0.427E-04  0.427E-04
 -20.731  0.344E-04  0.344E-04
 -20.716  0.276E-04  0.276E-04
 -20.701  0.220E-04  0.220E-04
 -20.686  0.174E-04  0.174E-04
 -20.671  0.137E-04  0.137E-04
 -20.656  0.107E-04  0.107E-04
 -20.641  0.836E-05  0.836E-05
 -20.626  0.647E-05  0.647E-05
 -20.611  0.498E-05  0.498E-05
 -20.596  0.381E-05  0.381E-05
 -20.581  0.289E-05  0.289E-05
 -20.566  0.219E-05  0.219E-05
 -20.551  0.164E-05  0.164E-05
 -20.536  0.123E-05  0.123E-05
 -20.521  0.910E-06  0.910E-06
 -20.506  0.672E-06  0.672E-06
 -20.491  0.493E-06  0.493E-06
 -20.476  0.359E-06  0.359E-06
 -20.461  0.260E-06  0.260E-06
 -20.446  0.188E-06  0.188E-06
 -20.431  0.134E-06  0.134E-06
 -20.416  0.956E-07  0.956E-07
 -20.401  0.676E-07  0.676E-07
 -20.386  0.476E-07  0.476E-07
 -20.371  0.333E-07  0.333E-07
 -20.356  0.231E-07  0.231E-07
 -20.341  0.160E-07  0.160E-07
 -20.326  0.110E-07  0.110E-07
 -20.311  0.748E-08  0.748E-08
 -20.296  0.507E-08  0.507E-08
 -20.281  0.342E-08  0.342E-08
 -20.266  0.229E-08  0.229E-08
 -20.251  0.153E-08  0.153E-08
 -20.236  0.101E-08  0.101E-08
 -20.221  0.666E-09  0.666E-09
 -20.206  0.436E-09  0.436E-09
 -20.191  0.283E-09  0.283E-09
 -20.176  0.183E-09  0.183E-09
 -20.161  0.118E-09  0.118E-09
 -20.146  0.752E-10  0.752E-10
 -20.131  0.477E-10  0.477E-10
 -20.116  0.301E-10  0.301E-10
 -20.101  0.189E-10  0.189E-10
 -20.086  0.118E-10  0.118E-10
 -20.071  0.730E-11  0.730E-11
 -20.056  0.449E-11  0.449E-11
 -20.041  0.275E-11  0.275E-11
 -20.026  0.168E-11  0.168E-11
 -20.011  0.101E-11  0.101E-11
 -19.996  0.609E-12  0.609E-12
 -19.981  0.364E-12  0.364E-12
 -19.966  0.216E-12  0.216E-12
 -19.951  0.128E-12  0.128E-12
 -19.936  0.749E-13  0.749E-13
 -19.921  0.437E-13  0.437E-13
 -19.906  0.214E-13  0.214E-13
 -19.891  0.107E-13  0.107E-13
 -19.876  0.220E-14  0.220E-14
 -19.861  0.000E+00  0.000E+00
 -19.846  0.000E+00  0.000E+00
 -19.831  0.000E+00  0.000E+00
 -19.816  0.000E+00  0.000E+00
 -19.801  0.000E+00  0.000E+00
 -19.786  0.000E+00  0.000E+00
 -19.771  0.000E+00  0.000E+00
 -19.756  0.000E+00  0.000E+00
 -19.741  0.000E+00  0.000E+00
 -19.726  0.000E+00  0.000E+00
 -19.711  0.000E+00  0.000E+00
 -19.696  0.000E+00  0.000E+00
 -19.681  0.000E+00  0.000E+00
 -19.666  0.000E+00  0.000E+00
 -19.651  0.000E+00  0.000E+00
 -19.636  0.000E+00  0.000E+00
 -19.621  0.000E+00  0.000E+00
 -19.606  0.000E+00  0.000E+00
 -19.591  0.000E+00  0.000E+00
 -19.576  0.000E+00  0.000E+00
 -19.561  0.000E+00  0.000E+00
 -19.546  0.000E+00  0.000E+00
 -19.531  0.000E+00  0.000E+00
 -19.516  0.000E+00  0.000E+00
 -19.501  0.000E+00  0.000E+00
 -19.486  0.000E+00  0.000E+00
 -19.471  0.000E+00  0.000E+00
 -19.456  0.000E+00  0.000E+00
 -19.441  0.000E+00  0.000E+00
 -19.426  0.000E+00  0.000E+00
 -19.411  0.000E+00  0.000E+00
 -19.396  0.000E+00  0.000E+00
 -19.381  0.000E+00  0.000E+00
 -19.366  0.000E+00  0.000E+00
 -19.351  0.000E+00  0.000E+00
 -19.336  0.000E+00  0.000E+00
 -19.321  0.000E+00  0.000E+00
 -19.306  0.000E+00  0.000E+00
 -19.291  0.000E+00  0.000E+00
 -19.276  0.000E+00  0.000E+00
 -19.261  0.000E+00  0.000E+00
 -19.246  0.000E+00  0.000E+00
 -19.231  0.000E+00  0.000E+00
 -19.216  0.000E+00  0.000E+00
 -19.201  0.000E+00  0.000E+00
 -19.186  0.000E+00  0.000E+00
 -19.171  0.000E+00  0.000E+00
 -19.156  0.000E+00  0.000E+00
 -19.141  0.000E+00  0.000E+00
 -19.126  0.000E+00  0.000E+00
 -19.111  0.000E+00  0.000E+00
 -19.096  0.000E+00  0.000E+00
 -19.081  0.000E+00  0.000E+00
 -19.066  0.000E+00  0.000E+00
 -19.051  0.000E+00  0.000E+00
 -19.036  0.000E+00  0.000E+00
 -19.021  0.000E+00  0.000E+00
 -19.006  0.000E+00  0.000E+00
 -18.991  0.000E+00  0.000E+00
 -18.976  0.000E+00  0.000E+00
 -18.961  0.000E+00  0.000E+00
 -18.946  0.000E+00  0.000E+00
 -18.931  0.000E+00  0.000E+00
 -18.916  0.000E+00  0.000E+00
 -18.901  0.000E+00  0.000E+00
 -18.886  0.000E+00  0.000E+00
 -18.871  0.000E+00  0.000E+00
 -18.856  0.000E+00  0.000E+00
 -18.841  0.000E+00  0.000E+00
 -18.826  0.000E+00  0.000E+00
 -18.811  0.000E+00  0.000E+00
 -18.796  0.000E+00  0.000E+00
 -18.781  0.000E+00  0.000E+00
 -18.766  0.000E+00  0.000E+00
 -18.751  0.000E+00  0.000E+00
 -18.736  0.000E+00  0.000E+00
 -18.721  0.000E+00  0.000E+00
 -18.706  0.000E+00  0.000E+00
 -18.691  0.000E+00  0.000E+00
 -18.676  0.000E+00  0.000E+00
 -18.661  0.000E+00  0.000E+00
 -18.646  0.000E+00  0.000E+00
 -18.631  0.000E+00  0.000E+00
 -18.616  0.000E+00  0.000E+00
 -18.601  0.000E+00  0.000E+00
 -18.586  0.000E+00  0.000E+00
 -18.571  0.000E+00  0.000E+00
 -18.556  0.000E+00  0.000E+00
 -18.541  0.000E+00  0.000E+00
 -18.526  0.000E+00  0.000E+00
 -18.511  0.000E+00  0.000E+00
 -18.496  0.000E+00  0.000E+00
 -18.481  0.000E+00  0.000E+00
 -18.466  0.000E+00  0.000E+00
 -18.451  0.000E+00  0.000E+00
 -18.436  0.000E+00  0.000E+00
 -18.421  0.000E+00  0.000E+00
 -18.406  0.000E+00  0.000E+00
 -18.391  0.000E+00  0.000E+00
 -18.376  0.000E+00  0.000E+00
 -18.361  0.000E+00  0.000E+00
 -18.346  0.000E+00  0.000E+00
 -18.331  0.000E+00  0.000E+00
 -18.316  0.000E+00  0.000E+00
 -18.301  0.000E+00  0.000E+00
 -18.286  0.000E+00  0.000E+00
 -18.271  0.000E+00  0.000E+00
 -18.256  0.000E+00  0.000E+00
 -18.241  0.000E+00  0.000E+00
 -18.226  0.000E+00  0.000E+00
 -18.211  0.000E+00  0.000E+00
 -18.196  0.000E+00  0.000E+00
 -18.181  0.000E+00  0.000E+00
 -18.166  0.000E+00  0.000E+00
 -18.151  0.000E+00  0.000E+00
 -18.136  0.000E+00  0.000E+00
 -18.121  0.000E+00  0.000E+00
 -18.106  0.000E+00  0.000E+00
 -18.091  0.000E+00  0.000E+00
 -18.076  0.000E+00  0.000E+00
 -18.061  0.000E+00  0.000E+00
 -18.046  0.000E+00  0.000E+00
 -18.031  0.000E+00  0.000E+00
 -18.016  0.000E+00  0.000E+00
 -18.001  0.000E+00  0.000E+00
 -17.986  0.000E+00  0.000E+00
 -17.971  0.000E+00  0.000E+00
 -17.956  0.000E+00  0.000E+00
 -17.941  0.000E+00  0.000E+00
 -17.926  0.000E+00  0.000E+00
 -17.911  0.000E+00  0.000E+00
 -17.896  0.000E+00  0.000E+00
 -17.881  0.000E+00  0.000E+00
 -17.866  0.000E+00  0.000E+00
 -17.851  0.000E+00  0.000E+00
 -17.836  0.000E+00  0.000E+00
 -17.821  0.000E+00  0.000E+00
 -17.806  0.000E+00  0.000E+00
 -17.791  0.000E+00  0.000E+00
 -17.776  0.000E+00  0.000E+00
 -17.761  0.000E+00  0.000E+00
 -17.746  0.000E+00  0.000E+00
 -17.731  0.000E+00  0.000E+00
 -17.716  0.000E+00  0.000E+00
 -17.701  0.000E+00  0.000E+00
 -17.686  0.000E+00  0.000E+00
 -17.671  0.000E+00  0.000E+00
 -17.656  0.000E+00  0.000E+00
 -17.641  0.000E+00  0.000E+00
 -17.626  0.000E+00  0.000E+00
 -17.611  0.000E+00  0.000E+00
 -17.596  0.000E+00  0.000E+00
 -17.581  0.000E+00  0.000E+00
 -17.566  0.000E+00  0.000E+00
 -17.551  0.000E+00  0.000E+00
 -17.536  0.000E+00  0.000E+00
 -17.521  0.000E+00  0.000E+00
 -17.506  0.000E+00  0.000E+00
 -17.491  0.000E+00  0.000E+00
 -17.476  0.000E+00  0.000E+00
 -17.461  0.000E+00  0.000E+00
 -17.446  0.000E+00  0.000E+00
 -17.431  0.000E+00  0.000E+00
 -17.416  0.000E+00  0.000E+00
 -17.401  0.000E+00  0.000E+00
 -17.386  0.000E+00  0.000E+00
 -17.371  0.000E+00  0.000E+00
 -17.356  0.000E+00  0.000E+00
 -17.341  0.000E+00  0.000E+00
 -17.326  0.000E+00  0.000E+00
 -17.311  0.000E+00  0.000E+00
 -17.296  0.000E+00  0.000E+00
 -17.281  0.000E+00  0.000E+00
 -17.266  0.000E+00  0.000E+00
 -17.251  0.000E+00  0.000E+00
 -17.236  0.000E+00  0.000E+00
 -17.221  0.000E+00  0.000E+00
 -17.206  0.000E+00  0.000E+00
 -17.191  0.000E+00  0.000E+00
 -17.176  0.000E+00  0.000E+00
 -17.161  0.000E+00  0.000E+00
 -17.146  0.000E+00  0.000E+00
 -17.131  0.000E+00  0.000E+00
 -17.116  0.000E+00  0.000E+00
 -17.101  0.000E+00  0.000E+00
 -17.086  0.000E+00  0.000E+00
 -17.071  0.000E+00  0.000E+00
 -17.056  0.000E+00  0.000E+00
 -17.041  0.000E+00  0.000E+00
 -17.026  0.000E+00  0.000E+00
 -17.011  0.000E+00  0.000E+00
 -16.996  0.000E+00  0.000E+00
 -16.981  0.000E+00  0.000E+00
 -16.966  0.000E+00  0.000E+00
 -16.951  0.000E+00  0.000E+00
 -16.936  0.000E+00  0.000E+00
 -16.921  0.000E+00  0.000E+00
 -16.906  0.000E+00  0.000E+00
 -16.891  0.000E+00  0.000E+00
 -16.876  0.000E+00  0.000E+00
 -16.861  0.000E+00  0.000E+00
 -16.846  0.000E+00  0.000E+00
 -16.831  0.000E+00  0.000E+00
 -16.816  0.000E+00  0.000E+00
 -16.801  0.000E+00  0.000E+00
 -16.786  0.000E+00  0.000E+00
 -16.771  0.000E+00  0.000E+00
 -16.756  0.000E+00  0.000E+00
 -16.741  0.000E+00  0.000E+00
 -16.726  0.000E+00  0.000E+00
 -16.711  0.000E+00  0.000E+00
 -16.696  0.000E+00  0.000E+00
 -16.681  0.000E+00  0.000E+00
 -16.666  0.000E+00  0.000E+00
 -16.651  0.000E+00  0.000E+00
 -16.636  0.000E+00  0.000E+00
 -16.621  0.000E+00  0.000E+00
 -16.606  0.000E+00  0.000E+00
 -16.591  0.000E+00  0.000E+00
 -16.576  0.000E+00  0.000E+00
 -16.561  0.000E+00  0.000E+00
 -16.546  0.000E+00  0.000E+00
 -16.531  0.000E+00  0.000E+00
 -16.516  0.000E+00  0.000E+00
 -16.501  0.000E+00  0.000E+00
 -16.486  0.000E+00  0.000E+00
 -16.471  0.000E+00  0.000E+00
 -16.456  0.000E+00  0.000E+00
 -16.441  0.000E+00  0.000E+00
 -16.426  0.000E+00  0.000E+00
 -16.411  0.000E+00  0.000E+00
 -16.396  0.000E+00  0.000E+00
 -16.381  0.000E+00  0.000E+00
 -16.366  0.000E+00  0.000E+00
 -16.351  0.000E+00  0.000E+00
 -16.336  0.000E+00  0.000E+00
 -16.321  0.000E+00  0.000E+00
 -16.306  0.000E+00  0.000E+00
 -16.291  0.000E+00  0.000E+00
 -16.276  0.000E+00  0.000E+00
 -16.261  0.000E+00  0.000E+00
 -16.246  0.000E+00  0.000E+00
 -16.231  0.000E+00  0.000E+00
 -16.216  0.000E+00  0.000E+00
 -16.201  0.000E+00  0.000E+00
 -16.186  0.000E+00  0.000E+00
 -16.171  0.000E+00  0.000E+00
 -16.156  0.000E+00  0.000E+00
 -16.141  0.000E+00  0.000E+00
 -16.126  0.000E+00  0.000E+00
 -16.111  0.000E+00  0.000E+00
 -16.096  0.000E+00  0.000E+00
 -16.081  0.000E+00  0.000E+00
 -16.066  0.000E+00  0.000E+00
 -16.051  0.000E+00  0.000E+00
 -16.036  0.000E+00  0.000E+00
 -16.021  0.000E+00  0.000E+00
 -16.006  0.000E+00  0.000E+00
 -15.991  0.000E+00  0.000E+00
 -15.976  0.000E+00  0.000E+00
 -15.961  0.000E+00  0.000E+00
 -15.946  0.000E+00  0.000E+00
 -15.931  0.000E+00  0.000E+00
 -15.916  0.000E+00  0.000E+00
 -15.901  0.000E+00  0.000E+00
 -15.886  0.000E+00  0.000E+00
 -15.871  0.000E+00  0.000E+00
 -15.856  0.000E+00  0.000E+00
 -15.841  0.000E+00  0.000E+00
 -15.826  0.000E+00  0.000E+00
 -15.811  0.000E+00  0.000E+00
 -15.796  0.000E+00  0.000E+00
 -15.781  0.000E+00  0.000E+00
 -15.766  0.000E+00  0.000E+00
 -15.751  0.000E+00  0.000E+00
 -15.736  0.000E+00  0.000E+00
 -15.721  0.000E+00  0.000E+00
 -15.706  0.000E+00  0.000E+00
 -15.691  0.000E+00  0.000E+00
 -15.676  0.000E+00  0.000E+00
 -15.661  0.000E+00  0.000E+00
 -15.646  0.000E+00  0.000E+00
 -15.631  0.000E+00  0.000E+00
 -15.616  0.000E+00  0.000E+00
 -15.601  0.000E+00  0.000E+00
 -15.586  0.000E+00  0.000E+00
 -15.571  0.000E+00  0.000E+00
 -15.556  0.000E+00  0.000E+00
 -15.541  0.000E+00  0.000E+00
 -15.526  0.000E+00  0.000E+00
 -15.511  0.000E+00  0.000E+00
 -15.496  0.000E+00  0.000E+00
 -15.481  0.000E+00  0.000E+00
 -15.466  0.000E+00  0.000E+00
 -15.451  0.000E+00  0.000E+00
 -15.436  0.000E+00  0.000E+00
 -15.421  0.000E+00  0.000E+00
 -15.406  0.000E+00  0.000E+00
 -15.391  0.000E+00  0.000E+00
 -15.376  0.000E+00  0.000E+00
 -15.361  0.000E+00  0.000E+00
 -15.346  0.000E+00  0.000E+00
 -15.331  0.000E+00  0.000E+00
 -15.316  0.000E+00  0.000E+00
 -15.301  0.000E+00  0.000E+00
 -15.286  0.000E+00  0.000E+00
 -15.271  0.000E+00  0.000E+00
 -15.256  0.000E+00  0.000E+00
 -15.241  0.000E+00  0.000E+00
 -15.226  0.000E+00  0.000E+00
 -15.211  0.000E+00  0.000E+00
 -15.196  0.000E+00  0.000E+00
 -15.181  0.000E+00  0.000E+00
 -15.166  0.000E+00  0.000E+00
 -15.151  0.000E+00  0.000E+00
 -15.136  0.000E+00  0.000E+00
 -15.121  0.000E+00  0.000E+00
 -15.106  0.000E+00  0.000E+00
 -15.091  0.000E+00  0.000E+00
 -15.076  0.000E+00  0.000E+00
 -15.061  0.000E+00  0.000E+00
 -15.046  0.000E+00  0.000E+00
 -15.031  0.000E+00  0.000E+00
 -15.016  0.000E+00  0.000E+00
 -15.001  0.000E+00  0.000E+00
 -14.986  0.000E+00  0.000E+00
 -14.971  0.000E+00  0.000E+00
 -14.956  0.000E+00  0.000E+00
 -14.941  0.000E+00  0.000E+00
 -14.926  0.000E+00  0.000E+00
 -14.911  0.000E+00  0.000E+00
 -14.896  0.000E+00  0.000E+00
 -14.881  0.000E+00  0.000E+00
 -14.866  0.000E+00  0.000E+00
 -14.851  0.000E+00  0.000E+00
 -14.836  0.000E+00  0.000E+00
 -14.821  0.100E-12  0.100E-12
 -14.806  0.174E-12  0.174E-12
 -14.791  0.300E-12  0.300E-12
 -14.776  0.514E-12  0.514E-12
 -14.761  0.877E-12  0.877E-12
 -14.746  0.149E-11  0.149E-11
 -14.731  0.250E-11  0.250E-11
 -14.716  0.419E-11  0.419E-11
 -14.701  0.697E-11  0.697E-11
 -14.686  0.115E-10  0.115E-10
 -14.671  0.189E-10  0.189E-10
 -14.656  0.310E-10  0.310E-10
 -14.641  0.503E-10  0.503E-10
 -14.626  0.812E-10  0.812E-10
 -14.611  0.130E-09  0.130E-09
 -14.596  0.208E-09  0.208E-09
 -14.581  0.329E-09  0.329E-09
 -14.566  0.518E-09  0.518E-09
 -14.551  0.812E-09  0.812E-09
 -14.536  0.126E-08  0.126E-08
 -14.521  0.195E-08  0.195E-08
 -14.506  0.300E-08  0.300E-08
 -14.491  0.459E-08  0.459E-08
 -14.476  0.697E-08  0.697E-08
 -14.461  0.105E-07  0.105E-07
 -14.446  0.158E-07  0.158E-07
 -14.431  0.236E-07  0.236E-07
 -14.416  0.349E-07  0.349E-07
 -14.401  0.515E-07  0.515E-07
 -14.386  0.754E-07  0.754E-07
 -14.371  0.110E-06  0.110E-06
 -14.356  0.159E-06  0.159E-06
 -14.341  0.228E-06  0.228E-06
 -14.326  0.326E-06  0.326E-06
 -14.311  0.464E-06  0.464E-06
 -14.296  0.655E-06  0.655E-06
 -14.281  0.919E-06  0.919E-06
 -14.266  0.128E-05  0.128E-05
 -14.251  0.178E-05  0.178E-05
 -14.236  0.245E-05  0.245E-05
 -14.221  0.336E-05  0.336E-05
 -14.206  0.457E-05  0.457E-05
 -14.191  0.619E-05  0.619E-05
 -14.176  0.832E-05  0.832E-05
 -14.161  0.111E-04  0.111E-04
 -14.146  0.148E-04  0.148E-04
 -14.131  0.195E-04  0.195E-04
 -14.116  0.256E-04  0.256E-04
 -14.101  0.335E-04  0.335E-04
 -14.086  0.434E-04  0.434E-04
 -14.071  0.560E-04  0.560E-04
 -14.056  0.717E-04  0.717E-04
 -14.041  0.913E-04  0.913E-04
 -14.026  0.116E-03  0.116E-03
 -14.011  0.146E-03  0.146E-03
 -13.996  0.182E-03  0.182E-03
 -13.981  0.226E-03  0.226E-03
 -13.966  0.280E-03  0.280E-03
 -13.951  0.343E-03  0.343E-03
 -13.936  0.419E-03  0.419E-03
 -13.921  0.508E-03  0.508E-03
 -13.906  0.613E-03  0.613E-03
 -13.891  0.735E-03  0.735E-03
 -13.876  0.876E-03  0.876E-03
 -13.861  0.104E-02  0.104E-02
 -13.846  0.122E-02  0.122E-02
 -13.831  0.143E-02  0.143E-02
 -13.816  0.166E-02  0.166E-02
 -13.801  0.192E-02  0.192E-02
 -13.786  0.221E-02  0.221E-02
 -13.771  0.252E-02  0.252E-02
 -13.756  0.286E-02  0.286E-02
 -13.741  0.322E-02  0.322E-02
 -13.726  0.362E-02  0.362E-02
 -13.711  0.403E-02  0.403E-02
 -13.696  0.447E-02  0.447E-02
 -13.681  0.492E-02  0.492E-02
 -13.666  0.538E-02  0.538E-02
 -13.651  0.586E-02  0.586E-02
 -13.636  0.634E-02  0.634E-02
 -13.621  0.681E-02  0.681E-02
 -13.606  0.728E-02  0.728E-02
 -13.591  0.773E-02  0.773E-02
 -13.576  0.816E-02  0.816E-02
 -13.561  0.857E-02  0.857E-02
 -13.546  0.894E-02  0.894E-02
 -13.531  0.927E-02  0.927E-02
 -13.516  0.956E-02  0.956E-02
 -13.501  0.979E-02  0.979E-02
 -13.486  0.997E-02  0.997E-02
 -13.471  0.101E-01  0.101E-01
 -13.456  0.102E-01  0.102E-01
 -13.441  0.102E-01  0.102E-01
 -13.426  0.101E-01  0.101E-01
 -13.411  0.100E-01  0.100E-01
 -13.396  0.984E-02  0.984E-02
 -13.381  0.962E-02  0.962E-02
 -13.366  0.935E-02  0.935E-02
 -13.351  0.904E-02  0.904E-02
 -13.336  0.869E-02  0.869E-02
 -13.321  0.830E-02  0.830E-02
 -13.306  0.789E-02  0.789E-02
 -13.291  0.746E-02  0.746E-02
 -13.276  0.701E-02  0.701E-02
 -13.261  0.656E-02  0.656E-02
 -13.246  0.611E-02  0.611E-02
 -13.231  0.565E-02  0.565E-02
 -13.216  0.521E-02  0.521E-02
 -13.201  0.478E-02  0.478E-02
 -13.186  0.437E-02  0.437E-02
 -13.171  0.398E-02  0.398E-02
 -13.156  0.362E-02  0.362E-02
 -13.141  0.328E-02  0.328E-02
 -13.126  0.296E-02  0.296E-02
 -13.111  0.268E-02  0.268E-02
 -13.096  0.242E-02  0.242E-02
 -13.081  0.219E-02  0.219E-02
 -13.066  0.198E-02  0.198E-02
 -13.051  0.180E-02  0.180E-02
 -13.036  0.165E-02  0.165E-02
 -13.021  0.152E-02  0.152E-02
 -13.006  0.142E-02  0.142E-02
 -12.991  0.133E-02  0.133E-02
 -12.976  0.127E-02  0.127E-02
 -12.961  0.122E-02  0.122E-02
 -12.946  0.120E-02  0.120E-02
 -12.931  0.118E-02  0.118E-02
 -12.916  0.119E-02  0.119E-02
 -12.901  0.121E-02  0.121E-02
 -12.886  0.124E-02  0.124E-02
 -12.871  0.128E-02  0.128E-02
 -12.856  0.134E-02  0.134E-02
 -12.841  0.141E-02  0.141E-02
 -12.826  0.149E-02  0.149E-02
 -12.811  0.159E-02  0.159E-02
 -12.796  0.170E-02  0.170E-02
 -12.781  0.182E-02  0.182E-02
 -12.766  0.196E-02  0.196E-02
 -12.751  0.211E-02  0.211E-02
 -12.736  0.227E-02  0.227E-02
 -12.721  0.245E-02  0.245E-02
 -12.706  0.264E-02  0.264E-02
 -12.691  0.285E-02  0.285E-02
 -12.676  0.308E-02  0.308E-02
 -12.661  0.332E-02  0.332E-02
 -12.646  0.358E-02  0.358E-02
 -12.631  0.385E-02  0.385E-02
 -12.616  0.414E-02  0.414E-02
 -12.601  0.445E-02  0.445E-02
 -12.586  0.477E-02  0.477E-02
 -12.571  0.510E-02  0.510E-02
 -12.556  0.544E-02  0.544E-02
 -12.541  0.579E-02  0.579E-02
 -12.526  0.615E-02  0.615E-02
 -12.511  0.652E-02  0.652E-02
 -12.496  0.689E-02  0.689E-02
 -12.481  0.726E-02  0.726E-02
 -12.466  0.763E-02  0.763E-02
 -12.451  0.800E-02  0.800E-02
 -12.436  0.837E-02  0.837E-02
 -12.421  0.872E-02  0.872E-02
 -12.406  0.907E-02  0.907E-02
 -12.391  0.941E-02  0.941E-02
 -12.376  0.973E-02  0.973E-02
 -12.361  0.100E-01  0.100E-01
 -12.346  0.103E-01  0.103E-01
 -12.331  0.106E-01  0.106E-01
 -12.316  0.109E-01  0.109E-01
 -12.301  0.111E-01  0.111E-01
 -12.286  0.114E-01  0.114E-01
 -12.271  0.116E-01  0.116E-01
 -12.256  0.119E-01  0.119E-01
 -12.241  0.121E-01  0.121E-01
 -12.226  0.124E-01  0.124E-01
 -12.211  0.126E-01  0.126E-01
 -12.196  0.129E-01  0.129E-01
 -12.181  0.132E-01  0.132E-01
 -12.166  0.136E-01  0.136E-01
 -12.151  0.140E-01  0.140E-01
 -12.136  0.144E-01  0.144E-01
 -12.121  0.149E-01  0.149E-01
 -12.106  0.155E-01  0.155E-01
 -12.091  0.162E-01  0.162E-01
 -12.076  0.169E-01  0.169E-01
 -12.061  0.178E-01  0.178E-01
 -12.046  0.188E-01  0.188E-01
 -12.031  0.199E-01  0.199E-01
 -12.016  0.211E-01  0.211E-01
 -12.001  0.224E-01  0.224E-01
 -11.986  0.239E-01  0.239E-01
 -11.971  0.255E-01  0.255E-01
 -11.956  0.272E-01  0.272E-01
 -11.941  0.291E-01  0.291E-01
 -11.926  0.311E-01  0.311E-01
 -11.911  0.332E-01  0.332E-01
 -11.896  0.353E-01  0.353E-01
 -11.881  0.376E-01  0.376E-01
 -11.866  0.400E-01  0.400E-01
 -11.851  0.424E-01  0.424E-01
 -11.836  0.449E-01  0.449E-01
 -11.821  0.474E-01  0.474E-01
 -11.806  0.500E-01  0.500E-01
 -11.791  0.525E-01  0.525E-01
 -11.776  0.551E-01  0.551E-01
 -11.761  0.576E-01  0.576E-01
 -11.746  0.601E-01  0.601E-01
 -11.731  0.626E-01  0.626E-01
 -11.716  0.651E-01  0.651E-01
 -11.701  0.675E-01  0.675E-01
 -11.686  0.699E-01  0.699E-01
 -11.671  0.723E-01  0.723E-01
 -11.656  0.746E-01  0.746E-01
 -11.641  0.770E-01  0.770E-01
 -11.626  0.794E-01  0.794E-01
 -11.611  0.819E-01  0.819E-01
 -11.596  0.844E-01  0.844E-01
 -11.581  0.870E-01  0.870E-01
 -11.566  0.897E-01  0.897E-01
 -11.551  0.926E-01  0.926E-01
 -11.536  0.956E-01  0.956E-01
 -11.521  0.988E-01  0.988E-01
 -11.506  0.102E+00  0.102E+00
 -11.491  0.106E+00  0.106E+00
 -11.476  0.109E+00  0.109E+00
 -11.461  0.113E+00  0.113E+00
 -11.446  0.118E+00  0.118E+00
 -11.431  0.122E+00  0.122E+00
 -11.416  0.127E+00  0.127E+00
 -11.401  0.131E+00  0.131E+00
 -11.386  0.136E+00  0.136E+00
 -11.371  0.141E+00  0.141E+00
 -11.356  0.145E+00  0.145E+00
 -11.341  0.150E+00  0.150E+00
 -11.326  0.155E+00  0.155E+00
 -11.311  0.159E+00  0.159E+00
 -11.296  0.163E+00  0.163E+00
 -11.281  0.167E+00  0.167E+00
 -11.266  0.170E+00  0.170E+00
 -11.251  0.173E+00  0.173E+00
 -11.236  0.176E+00  0.176E+00
 -11.221  0.177E+00  0.177E+00
 -11.206  0.179E+00  0.179E+00
 -11.191  0.179E+00  0.179E+00
 -11.176  0.179E+00  0.179E+00
 -11.161  0.178E+00  0.178E+00
 -11.146  0.177E+00  0.177E+00
 -11.131  0.175E+00  0.175E+00
 -11.116  0.172E+00  0.172E+00
 -11.101  0.169E+00  0.169E+00
 -11.086  0.165E+00  0.165E+00
 -11.071  0.161E+00  0.161E+00
 -11.056  0.156E+00  0.156E+00
 -11.041  0.151E+00  0.151E+00
 -11.026  0.146E+00  0.146E+00
 -11.011  0.140E+00  0.140E+00
 -10.996  0.135E+00  0.135E+00
 -10.981  0.129E+00  0.129E+00
 -10.966  0.124E+00  0.124E+00
 -10.951  0.119E+00  0.119E+00
 -10.936  0.114E+00  0.114E+00
 -10.921  0.109E+00  0.109E+00
 -10.906  0.104E+00  0.104E+00
 -10.891  0.997E-01  0.997E-01
 -10.876  0.958E-01  0.958E-01
 -10.861  0.922E-01  0.922E-01
 -10.846  0.889E-01  0.889E-01
 -10.831  0.861E-01  0.861E-01
 -10.816  0.836E-01  0.836E-01
 -10.801  0.814E-01  0.814E-01
 -10.786  0.795E-01  0.795E-01
 -10.771  0.780E-01  0.780E-01
 -10.756  0.767E-01  0.767E-01
 -10.741  0.758E-01  0.758E-01
 -10.726  0.750E-01  0.750E-01
 -10.711  0.744E-01  0.744E-01
 -10.696  0.740E-01  0.740E-01
 -10.681  0.738E-01  0.738E-01
 -10.666  0.737E-01  0.737E-01
 -10.651  0.736E-01  0.736E-01
 -10.636  0.737E-01  0.737E-01
 -10.621  0.738E-01  0.738E-01
 -10.606  0.739E-01  0.739E-01
 -10.591  0.741E-01  0.741E-01
 -10.576  0.742E-01  0.742E-01
 -10.561  0.744E-01  0.744E-01
 -10.546  0.745E-01  0.745E-01
 -10.531  0.746E-01  0.746E-01
 -10.516  0.746E-01  0.746E-01
 -10.501  0.746E-01  0.746E-01
 -10.486  0.746E-01  0.746E-01
 -10.471  0.745E-01  0.745E-01
 -10.456  0.744E-01  0.744E-01
 -10.441  0.742E-01  0.742E-01
 -10.426  0.739E-01  0.739E-01
 -10.411  0.736E-01  0.736E-01
 -10.396  0.733E-01  0.733E-01
 -10.381  0.730E-01  0.730E-01
 -10.366  0.726E-01  0.726E-01
 -10.351  0.721E-01  0.721E-01
 -10.336  0.717E-01  0.717E-01
 -10.321  0.712E-01  0.712E-01
 -10.306  0.708E-01  0.708E-01
 -10.291  0.703E-01  0.703E-01
 -10.276  0.699E-01  0.699E-01
 -10.261  0.695E-01  0.695E-01
 -10.246  0.691E-01  0.691E-01
 -10.231  0.688E-01  0.688E-01
 -10.216  0.685E-01  0.685E-01
 -10.201  0.683E-01  0.683E-01
 -10.186  0.681E-01  0.681E-01
 -10.171  0.680E-01  0.680E-01
 -10.156  0.679E-01  0.679E-01
 -10.141  0.679E-01  0.679E-01
 -10.126  0.679E-01  0.679E-01
 -10.111  0.680E-01  0.680E-01
 -10.096  0.681E-01  0.681E-01
 -10.081  0.683E-01  0.683E-01
 -10.066  0.685E-01  0.685E-01
 -10.051  0.687E-01  0.687E-01
 -10.036  0.690E-01  0.690E-01
 -10.021  0.692E-01  0.692E-01
 -10.006  0.695E-01  0.695E-01
  -9.991  0.698E-01  0.698E-01
  -9.976  0.702E-01  0.702E-01
  -9.961  0.705E-01  0.705E-01
  -9.946  0.708E-01  0.708E-01
  -9.931  0.711E-01  0.711E-01
  -9.916  0.714E-01  0.714E-01
  -9.901  0.716E-01  0.716E-01
  -9.886  0.718E-01  0.718E-01
  -9.871  0.720E-01  0.720E-01
  -9.856  0.722E-01  0.722E-01
  -9.841  0.723E-01  0.723E-01
  -9.826  0.724E-01  0.724E-01
  -9.811  0.725E-01  0.725E-01
  -9.796  0.725E-01  0.725E-01
  -9.781  0.724E-01  0.724E-01
  -9.766  0.723E-01  0.723E-01
  -9.751  0.722E-01  0.722E-01
  -9.736  0.720E-01  0.720E-01
  -9.721  0.719E-01  0.719E-01
  -9.706  0.717E-01  0.717E-01
  -9.691  0.714E-01  0.714E-01
  -9.676  0.712E-01  0.712E-01
  -9.661  0.710E-01  0.710E-01
  -9.646  0.707E-01  0.707E-01
  -9.631  0.705E-01  0.705E-01
  -9.616  0.703E-01  0.703E-01
  -9.601  0.701E-01  0.701E-01
  -9.586  0.699E-01  0.699E-01
  -9.571  0.698E-01  0.698E-01
  -9.556  0.697E-01  0.697E-01
  -9.541  0.696E-01  0.696E-01
  -9.526  0.695E-01  0.695E-01
  -9.511  0.695E-01  0.695E-01
  -9.496  0.694E-01  0.694E-01
  -9.481  0.694E-01  0.694E-01
  -9.466  0.693E-01  0.693E-01
  -9.451  0.692E-01  0.692E-01
  -9.436  0.691E-01  0.691E-01
  -9.421  0.689E-01  0.689E-01
  -9.406  0.687E-01  0.687E-01
  -9.391  0.684E-01  0.684E-01
  -9.376  0.680E-01  0.680E-01
  -9.361  0.675E-01  0.675E-01
  -9.346  0.670E-01  0.670E-01
  -9.331  0.663E-01  0.663E-01
  -9.316  0.656E-01  0.656E-01
  -9.301  0.647E-01  0.647E-01
  -9.286  0.638E-01  0.638E-01
  -9.271  0.627E-01  0.627E-01
  -9.256  0.616E-01  0.616E-01
  -9.241  0.604E-01  0.604E-01
  -9.226  0.592E-01  0.592E-01
  -9.211  0.579E-01  0.579E-01
  -9.196  0.565E-01  0.565E-01
  -9.181  0.552E-01  0.552E-01
  -9.166  0.538E-01  0.538E-01
  -9.151  0.525E-01  0.525E-01
  -9.136  0.511E-01  0.511E-01
  -9.121  0.498E-01  0.498E-01
  -9.106  0.486E-01  0.486E-01
  -9.091  0.475E-01  0.475E-01
  -9.076  0.464E-01  0.464E-01
  -9.061  0.454E-01  0.454E-01
  -9.046  0.446E-01  0.446E-01
  -9.031  0.438E-01  0.438E-01
  -9.016  0.432E-01  0.432E-01
  -9.001  0.427E-01  0.427E-01
  -8.986  0.423E-01  0.423E-01
  -8.971  0.420E-01  0.420E-01
  -8.956  0.418E-01  0.418E-01
  -8.941  0.417E-01  0.417E-01
  -8.926  0.418E-01  0.418E-01
  -8.911  0.419E-01  0.419E-01
  -8.896  0.421E-01  0.421E-01
  -8.881  0.424E-01  0.424E-01
  -8.866  0.427E-01  0.427E-01
  -8.851  0.430E-01  0.430E-01
  -8.836  0.434E-01  0.434E-01
  -8.821  0.438E-01  0.438E-01
  -8.806  0.442E-01  0.442E-01
  -8.791  0.445E-01  0.445E-01
  -8.776  0.448E-01  0.448E-01
  -8.761  0.451E-01  0.451E-01
  -8.746  0.453E-01  0.453E-01
  -8.731  0.454E-01  0.454E-01
  -8.716  0.455E-01  0.455E-01
  -8.701  0.455E-01  0.455E-01
  -8.686  0.454E-01  0.454E-01
  -8.671  0.452E-01  0.452E-01
  -8.656  0.450E-01  0.450E-01
  -8.641  0.446E-01  0.446E-01
  -8.626  0.443E-01  0.443E-01
  -8.611  0.438E-01  0.438E-01
  -8.596  0.433E-01  0.433E-01
  -8.581  0.428E-01  0.428E-01
  -8.566  0.423E-01  0.423E-01
  -8.551  0.417E-01  0.417E-01
  -8.536  0.412E-01  0.412E-01
  -8.521  0.406E-01  0.406E-01
  -8.506  0.401E-01  0.401E-01
  -8.491  0.397E-01  0.397E-01
  -8.476  0.393E-01  0.393E-01
  -8.461  0.390E-01  0.390E-01
  -8.446  0.387E-01  0.387E-01
  -8.431  0.386E-01  0.386E-01
  -8.416  0.385E-01  0.385E-01
  -8.401  0.385E-01  0.385E-01
  -8.386  0.387E-01  0.387E-01
  -8.371  0.389E-01  0.389E-01
  -8.356  0.392E-01  0.392E-01
  -8.341  0.396E-01  0.396E-01
  -8.326  0.401E-01  0.401E-01
  -8.311  0.407E-01  0.407E-01
  -8.296  0.414E-01  0.414E-01
  -8.281  0.421E-01  0.421E-01
  -8.266  0.428E-01  0.428E-01
  -8.251  0.436E-01  0.436E-01
  -8.236  0.444E-01  0.444E-01
  -8.221  0.452E-01  0.452E-01
  -8.206  0.459E-01  0.459E-01
  -8.191  0.467E-01  0.467E-01
  -8.176  0.474E-01  0.474E-01
  -8.161  0.481E-01  0.481E-01
  -8.146  0.487E-01  0.487E-01
  -8.131  0.492E-01  0.492E-01
  -8.116  0.497E-01  0.497E-01
  -8.101  0.501E-01  0.501E-01
  -8.086  0.503E-01  0.503E-01
  -8.071  0.505E-01  0.505E-01
  -8.056  0.506E-01  0.506E-01
  -8.041  0.505E-01  0.505E-01
  -8.026  0.504E-01  0.504E-01
  -8.011  0.502E-01  0.502E-01
  -7.996  0.499E-01  0.499E-01
  -7.981  0.495E-01  0.495E-01
  -7.966  0.490E-01  0.490E-01
  -7.951  0.484E-01  0.484E-01
  -7.936  0.478E-01  0.478E-01
  -7.921  0.471E-01  0.471E-01
  -7.906  0.463E-01  0.463E-01
  -7.891  0.455E-01  0.455E-01
  -7.876  0.447E-01  0.447E-01
  -7.861  0.438E-01  0.438E-01
  -7.846  0.429E-01  0.429E-01
  -7.831  0.420E-01  0.420E-01
  -7.816  0.410E-01  0.410E-01
  -7.801  0.401E-01  0.401E-01
  -7.786  0.391E-01  0.391E-01
  -7.771  0.382E-01  0.382E-01
  -7.756  0.372E-01  0.372E-01
  -7.741  0.363E-01  0.363E-01
  -7.726  0.353E-01  0.353E-01
  -7.711  0.344E-01  0.344E-01
  -7.696  0.335E-01  0.335E-01
  -7.681  0.325E-01  0.325E-01
  -7.666  0.316E-01  0.316E-01
  -7.651  0.308E-01  0.308E-01
  -7.636  0.299E-01  0.299E-01
  -7.621  0.291E-01  0.291E-01
  -7.606  0.283E-01  0.283E-01
  -7.591  0.275E-01  0.275E-01
  -7.576  0.267E-01  0.267E-01
  -7.561  0.260E-01  0.260E-01
  -7.546  0.253E-01  0.253E-01
  -7.531  0.247E-01  0.247E-01
  -7.516  0.241E-01  0.241E-01
  -7.501  0.235E-01  0.235E-01
  -7.486  0.230E-01  0.230E-01
  -7.471  0.225E-01  0.225E-01
  -7.456  0.221E-01  0.221E-01
  -7.441  0.217E-01  0.217E-01
  -7.426  0.214E-01  0.214E-01
  -7.411  0.211E-01  0.211E-01
  -7.396  0.208E-01  0.208E-01
  -7.381  0.207E-01  0.207E-01
  -7.366  0.205E-01  0.205E-01
  -7.351  0.204E-01  0.204E-01
  -7.336  0.204E-01  0.204E-01
  -7.321  0.204E-01  0.204E-01
  -7.306  0.204E-01  0.204E-01
  -7.291  0.205E-01  0.205E-01
  -7.276  0.205E-01  0.205E-01
  -7.261  0.207E-01  0.207E-01
  -7.246  0.208E-01  0.208E-01
  -7.231  0.210E-01  0.210E-01
  -7.216  0.211E-01  0.211E-01
  -7.201  0.213E-01  0.213E-01
  -7.186  0.215E-01  0.215E-01
  -7.171  0.216E-01  0.216E-01
  -7.156  0.218E-01  0.218E-01
  -7.141  0.220E-01  0.220E-01
  -7.126  0.221E-01  0.221E-01
  -7.111  0.222E-01  0.222E-01
  -7.096  0.223E-01  0.223E-01
  -7.081  0.224E-01  0.224E-01
  -7.066  0.225E-01  0.225E-01
  -7.051  0.225E-01  0.225E-01
  -7.036  0.224E-01  0.224E-01
  -7.021  0.224E-01  0.224E-01
  -7.006  0.223E-01  0.223E-01
  -6.991  0.221E-01  0.221E-01
  -6.976  0.219E-01  0.219E-01
  -6.961  0.217E-01  0.217E-01
  -6.946  0.214E-01  0.214E-01
  -6.931  0.211E-01  0.211E-01
  -6.916  0.207E-01  0.207E-01
  -6.901  0.203E-01  0.203E-01
  -6.886  0.199E-01  0.199E-01
  -6.871  0.194E-01  0.194E-01
  -6.856  0.189E-01  0.189E-01
  -6.841  0.184E-01  0.184E-01
  -6.826  0.179E-01  0.179E-01
  -6.811  0.174E-01  0.174E-01
  -6.796  0.168E-01  0.168E-01
  -6.781  0.163E-01  0.163E-01
  -6.766  0.157E-01  0.157E-01
  -6.751  0.152E-01  0.152E-01
  -6.736  0.147E-01  0.147E-01
  -6.721  0.142E-01  0.142E-01
  -6.706  0.137E-01  0.137E-01
  -6.691  0.133E-01  0.133E-01
  -6.676  0.129E-01  0.129E-01
  -6.661  0.125E-01  0.125E-01
  -6.646  0.121E-01  0.121E-01
  -6.631  0.118E-01  0.118E-01
  -6.616  0.115E-01  0.115E-01
  -6.601  0.113E-01  0.113E-01
  -6.586  0.111E-01  0.111E-01
  -6.571  0.109E-01  0.109E-01
  -6.556  0.108E-01  0.108E-01
  -6.541  0.107E-01  0.107E-01
  -6.526  0.106E-01  0.106E-01
  -6.511  0.105E-01  0.105E-01
  -6.496  0.105E-01  0.105E-01
  -6.481  0.105E-01  0.105E-01
  -6.466  0.106E-01  0.106E-01
  -6.451  0.106E-01  0.106E-01
  -6.436  0.107E-01  0.107E-01
  -6.421  0.107E-01  0.107E-01
  -6.406  0.108E-01  0.108E-01
  -6.391  0.109E-01  0.109E-01
  -6.376  0.110E-01  0.110E-01
  -6.361  0.111E-01  0.111E-01
  -6.346  0.112E-01  0.112E-01
  -6.331  0.114E-01  0.114E-01
  -6.316  0.115E-01  0.115E-01
  -6.301  0.116E-01  0.116E-01
  -6.286  0.116E-01  0.116E-01
  -6.271  0.117E-01  0.117E-01
  -6.256  0.118E-01  0.118E-01
  -6.241  0.119E-01  0.119E-01
  -6.226  0.119E-01  0.119E-01
  -6.211  0.120E-01  0.120E-01
  -6.196  0.120E-01  0.120E-01
  -6.181  0.121E-01  0.121E-01
  -6.166  0.121E-01  0.121E-01
  -6.151  0.121E-01  0.121E-01
  -6.136  0.121E-01  0.121E-01
  -6.121  0.121E-01  0.121E-01
  -6.106  0.121E-01  0.121E-01
  -6.091  0.120E-01  0.120E-01
  -6.076  0.120E-01  0.120E-01
  -6.061  0.119E-01  0.119E-01
  -6.046  0.119E-01  0.119E-01
  -6.031  0.118E-01  0.118E-01
  -6.016  0.117E-01  0.117E-01
  -6.001  0.116E-01  0.116E-01
  -5.986  0.115E-01  0.115E-01
  -5.971  0.114E-01  0.114E-01
  -5.956  0.113E-01  0.113E-01
  -5.941  0.111E-01  0.111E-01
  -5.926  0.110E-01  0.110E-01
  -5.911  0.108E-01  0.108E-01
  -5.896  0.107E-01  0.107E-01
  -5.881  0.105E-01  0.105E-01
  -5.866  0.103E-01  0.103E-01
  -5.851  0.102E-01  0.102E-01
  -5.836  0.997E-02  0.997E-02
  -5.821  0.977E-02  0.977E-02
  -5.806  0.957E-02  0.957E-02
  -5.791  0.937E-02  0.937E-02
  -5.776  0.916E-02  0.916E-02
  -5.761  0.895E-02  0.895E-02
  -5.746  0.873E-02  0.873E-02
  -5.731  0.852E-02  0.852E-02
  -5.716  0.831E-02  0.831E-02
  -5.701  0.810E-02  0.810E-02
  -5.686  0.789E-02  0.789E-02
  -5.671  0.768E-02  0.768E-02
  -5.656  0.749E-02  0.749E-02
  -5.641  0.729E-02  0.729E-02
  -5.626  0.711E-02  0.711E-02
  -5.611  0.693E-02  0.693E-02
  -5.596  0.676E-02  0.676E-02
  -5.581  0.660E-02  0.660E-02
  -5.566  0.644E-02  0.644E-02
  -5.551  0.630E-02  0.630E-02
  -5.536  0.616E-02  0.616E-02
  -5.521  0.603E-02  0.603E-02
  -5.506  0.591E-02  0.591E-02
  -5.491  0.580E-02  0.580E-02
  -5.476  0.569E-02  0.569E-02
  -5.461  0.559E-02  0.559E-02
  -5.446  0.549E-02  0.549E-02
  -5.431  0.540E-02  0.540E-02
  -5.416  0.531E-02  0.531E-02
  -5.401  0.523E-02  0.523E-02
  -5.386  0.515E-02  0.515E-02
  -5.371  0.507E-02  0.507E-02
  -5.356  0.499E-02  0.499E-02
  -5.341  0.491E-02  0.491E-02
  -5.326  0.483E-02  0.483E-02
  -5.311  0.475E-02  0.475E-02
  -5.296  0.467E-02  0.467E-02
  -5.281  0.459E-02  0.459E-02
  -5.266  0.451E-02  0.451E-02
  -5.251  0.443E-02  0.443E-02
  -5.236  0.434E-02  0.434E-02
  -5.221  0.426E-02  0.426E-02
  -5.206  0.417E-02  0.417E-02
  -5.191  0.409E-02  0.409E-02
  -5.176  0.400E-02  0.400E-02
  -5.161  0.391E-02  0.391E-02
  -5.146  0.382E-02  0.382E-02
  -5.131  0.374E-02  0.374E-02
  -5.116  0.365E-02  0.365E-02
  -5.101  0.356E-02  0.356E-02
  -5.086  0.347E-02  0.347E-02
  -5.071  0.338E-02  0.338E-02
  -5.056  0.330E-02  0.330E-02
  -5.041  0.321E-02  0.321E-02
  -5.026  0.313E-02  0.313E-02
  -5.011  0.304E-02  0.304E-02
  -4.996  0.296E-02  0.296E-02
  -4.981  0.287E-02  0.287E-02
  -4.966  0.279E-02  0.279E-02
  -4.951  0.270E-02  0.270E-02
  -4.936  0.262E-02  0.262E-02
  -4.921  0.254E-02  0.254E-02
  -4.906  0.246E-02  0.246E-02
  -4.891  0.238E-02  0.238E-02
  -4.876  0.229E-02  0.229E-02
  -4.861  0.221E-02  0.221E-02
  -4.846  0.213E-02  0.213E-02
  -4.831  0.205E-02  0.205E-02
  -4.816  0.197E-02  0.197E-02
  -4.801  0.189E-02  0.189E-02
  -4.786  0.181E-02  0.181E-02
  -4.771  0.173E-02  0.173E-02
  -4.756  0.165E-02  0.165E-02
  -4.741  0.157E-02  0.157E-02
  -4.726  0.149E-02  0.149E-02
  -4.711  0.141E-02  0.141E-02
  -4.696  0.133E-02  0.133E-02
  -4.681  0.125E-02  0.125E-02
  -4.666  0.118E-02  0.118E-02
  -4.651  0.110E-02  0.110E-02
  -4.636  0.103E-02  0.103E-02
  -4.621  0.959E-03  0.959E-03
  -4.606  0.891E-03  0.891E-03
  -4.591  0.824E-03  0.824E-03
  -4.576  0.760E-03  0.760E-03
  -4.561  0.699E-03  0.699E-03
  -4.546  0.640E-03  0.640E-03
  -4.531  0.584E-03  0.584E-03
  -4.516  0.531E-03  0.531E-03
  -4.501  0.481E-03  0.481E-03
  -4.486  0.435E-03  0.435E-03
  -4.471  0.391E-03  0.391E-03
  -4.456  0.350E-03  0.350E-03
  -4.441  0.312E-03  0.312E-03
  -4.426  0.278E-03  0.278E-03
  -4.411  0.246E-03  0.246E-03
  -4.396  0.217E-03  0.217E-03
  -4.381  0.190E-03  0.190E-03
  -4.366  0.166E-03  0.166E-03
  -4.351  0.145E-03  0.145E-03
  -4.336  0.126E-03  0.126E-03
  -4.321  0.108E-03  0.108E-03
  -4.306  0.933E-04  0.933E-04
  -4.291  0.799E-04  0.799E-04
  -4.276  0.681E-04  0.681E-04
  -4.261  0.578E-04  0.578E-04
  -4.246  0.489E-04  0.489E-04
  -4.231  0.411E-04  0.411E-04
  -4.216  0.345E-04  0.345E-04
  -4.201  0.288E-04  0.288E-04
  -4.186  0.239E-04  0.239E-04
  -4.171  0.198E-04  0.198E-04
  -4.156  0.163E-04  0.163E-04
  -4.141  0.133E-04  0.133E-04
  -4.126  0.109E-04  0.109E-04
  -4.111  0.885E-05  0.885E-05
  -4.096  0.715E-05  0.715E-05
  -4.081  0.576E-05  0.576E-05
  -4.066  0.462E-05  0.462E-05
  -4.051  0.368E-05  0.368E-05
  -4.036  0.292E-05  0.292E-05
  -4.021  0.231E-05  0.231E-05
  -4.006  0.182E-05  0.182E-05
  -3.991  0.142E-05  0.142E-05
  -3.976  0.111E-05  0.111E-05
  -3.961  0.860E-06  0.860E-06
  -3.946  0.664E-06  0.664E-06
  -3.931  0.510E-06  0.510E-06
  -3.916  0.389E-06  0.389E-06
  -3.901  0.296E-06  0.296E-06
  -3.886  0.224E-06  0.224E-06
  -3.871  0.169E-06  0.169E-06
  -3.856  0.126E-06  0.126E-06
  -3.841  0.942E-07  0.942E-07
  -3.826  0.699E-07  0.699E-07
  -3.811  0.516E-07  0.516E-07
  -3.796  0.378E-07  0.378E-07
  -3.781  0.276E-07  0.276E-07
  -3.766  0.201E-07  0.201E-07
  -3.751  0.145E-07  0.145E-07
  -3.736  0.104E-07  0.104E-07
  -3.721  0.745E-08  0.745E-08
  -3.706  0.530E-08  0.530E-08
  -3.691  0.375E-08  0.375E-08
  -3.676  0.264E-08  0.264E-08
  -3.661  0.184E-08  0.184E-08
  -3.646  0.128E-08  0.128E-08
  -3.631  0.888E-09  0.888E-09
  -3.616  0.611E-09  0.611E-09
  -3.601  0.418E-09  0.418E-09
  -3.586  0.285E-09  0.285E-09
  -3.571  0.193E-09  0.193E-09
  -3.556  0.130E-09  0.130E-09
  -3.541  0.868E-10  0.868E-10
  -3.526  0.577E-10  0.577E-10
  -3.511  0.382E-10  0.382E-10
  -3.496  0.251E-10  0.251E-10
  -3.481  0.164E-10  0.164E-10
  -3.466  0.107E-10  0.107E-10
  -3.451  0.692E-11  0.692E-11
  -3.436  0.445E-11  0.445E-11
  -3.421  0.285E-11  0.285E-11
  -3.406  0.181E-11  0.181E-11
  -3.391  0.114E-11  0.114E-11
  -3.376  0.718E-12  0.718E-12
  -3.361  0.448E-12  0.448E-12
  -3.346  0.278E-12  0.278E-12
  -3.331  0.171E-12  0.171E-12
  -3.316  0.105E-12  0.105E-12
  -3.301  0.637E-13  0.637E-13
  -3.286  0.383E-13  0.383E-13
  -3.271  0.231E-13  0.231E-13
  -3.256  0.139E-13  0.139E-13
  -3.241  0.809E-14  0.809E-14
  -3.226  0.470E-14  0.470E-14
  -3.211  0.277E-14  0.277E-14
  -3.196  0.163E-14  0.163E-14
  -3.181  0.887E-15  0.887E-15
  -3.166  0.493E-15  0.493E-15
  -3.151  0.279E-15  0.279E-15
  -3.136  0.452E-16  0.452E-16
  -3.121  0.000E+00  0.000E+00
  -3.106  0.000E+00  0.000E+00
  -3.091  0.000E+00  0.000E+00
  -3.076  0.000E+00  0.000E+00
  -3.061  0.000E+00  0.000E+00
  -3.046  0.000E+00  0.000E+00
  -3.031  0.000E+00  0.000E+00
  -3.016  0.000E+00  0.000E+00
  -3.001  0.000E+00  0.000E+00
  -2.986  0.000E+00  0.000E+00
  -2.971  0.000E+00  0.000E+00
  -2.956  0.000E+00  0.000E+00
  -2.941  0.000E+00  0.000E+00
  -2.926  0.000E+00  0.000E+00
  -2.911  0.000E+00  0.000E+00
  -2.896  0.000E+00  0.000E+00
  -2.881  0.000E+00  0.000E+00
  -2.866  0.000E+00  0.000E+00
  -2.851  0.000E+00  0.000E+00
  -2.836  0.000E+00  0.000E+00
  -2.821  0.000E+00  0.000E+00
  -2.806  0.000E+00  0.000E+00
  -2.791  0.000E+00  0.000E+00
  -2.776  0.000E+00  0.000E+00
  -2.761  0.000E+00  0.000E+00
  -2.746  0.000E+00  0.000E+00
  -2.731  0.000E+00  0.000E+00
  -2.716  0.000E+00  0.000E+00
  -2.701  0.000E+00  0.000E+00
  -2.686  0.000E+00  0.000E+00
  -2.671  0.000E+00  0.000E+00
  -2.656  0.000E+00  0.000E+00
  -2.641  0.000E+00  0.000E+00
  -2.626  0.000E+00  0.000E+00
  -2.611  0.000E+00  0.000E+00
  -2.596  0.000E+00  0.000E+00
  -2.581  0.000E+00  0.000E+00
  -2.566  0.000E+00  0.000E+00
  -2.551  0.000E+00  0.000E+00
  -2.536  0.000E+00  0.000E+00
  -2.521  0.000E+00  0.000E+00
  -2.506  0.000E+00  0.000E+00
  -2.491  0.000E+00  0.000E+00
  -2.476  0.000E+00  0.000E+00
  -2.461  0.000E+00  0.000E+00
  -2.446  0.000E+00  0.000E+00
  -2.431  0.000E+00  0.000E+00
  -2.416  0.000E+00  0.000E+00
  -2.401  0.000E+00  0.000E+00
  -2.386  0.000E+00  0.000E+00
  -2.371  0.000E+00  0.000E+00
  -2.356  0.000E+00  0.000E+00
  -2.341  0.000E+00  0.000E+00
  -2.326  0.000E+00  0.000E+00
  -2.311  0.000E+00  0.000E+00
  -2.296  0.000E+00  0.000E+00
  -2.281  0.000E+00  0.000E+00
  -2.266  0.000E+00  0.000E+00
  -2.251  0.000E+00  0.000E+00
  -2.236  0.000E+00  0.000E+00
  -2.221  0.000E+00  0.000E+00
  -2.206  0.000E+00  0.000E+00
  -2.191  0.000E+00  0.000E+00
  -2.176  0.000E+00  0.000E+00
  -2.161  0.000E+00  0.000E+00
  -2.146  0.000E+00  0.000E+00
  -2.131  0.000E+00  0.000E+00
  -2.116  0.000E+00  0.000E+00
  -2.101  0.000E+00  0.000E+00
  -2.086  0.000E+00  0.000E+00
  -2.071  0.000E+00  0.000E+00
  -2.056  0.000E+00  0.000E+00
  -2.041  0.000E+00  0.000E+00
  -2.026  0.000E+00  0.000E+00
  -2.011  0.000E+00  0.000E+00
  -1.996  0.000E+00  0.000E+00
  -1.981  0.000E+00  0.000E+00
  -1.966  0.000E+00  0.000E+00
  -1.951  0.000E+00  0.000E+00
  -1.936  0.000E+00  0.000E+00
  -1.921  0.000E+00  0.000E+00
  -1.906  0.000E+00  0.000E+00
  -1.891  0.000E+00  0.000E+00
  -1.876  0.000E+00  0.000E+00
  -1.861  0.000E+00  0.000E+00
  -1.846  0.000E+00  0.000E+00
  -1.831  0.000E+00  0.000E+00
  -1.816  0.000E+00  0.000E+00
  -1.801  0.000E+00  0.000E+00
  -1.786  0.000E+00  0.000E+00
  -1.771  0.000E+00  0.000E+00
  -1.756  0.000E+00  0.000E+00
  -1.741  0.000E+00  0.000E+00
  -1.726  0.000E+00  0.000E+00
  -1.711  0.000E+00  0.000E+00
  -1.696  0.000E+00  0.000E+00
  -1.681  0.000E+00  0.000E+00
  -1.666  0.000E+00  0.000E+00
  -1.651  0.000E+00  0.000E+00
  -1.636  0.000E+00  0.000E+00
  -1.621  0.000E+00  0.000E+00
  -1.606  0.000E+00  0.000E+00
  -1.591  0.000E+00  0.000E+00
  -1.576  0.000E+00  0.000E+00
  -1.561  0.000E+00  0.000E+00
  -1.546  0.000E+00  0.000E+00
  -1.531  0.000E+00  0.000E+00
  -1.516  0.000E+00  0.000E+00
  -1.501  0.000E+00  0.000E+00
  -1.486  0.000E+00  0.000E+00
  -1.471  0.000E+00  0.000E+00
  -1.456  0.000E+00  0.000E+00
  -1.441  0.000E+00  0.000E+00
  -1.426  0.000E+00  0.000E+00
  -1.411  0.000E+00  0.000E+00
  -1.396  0.000E+00  0.000E+00
  -1.381  0.000E+00  0.000E+00
  -1.366  0.000E+00  0.000E+00
  -1.351  0.000E+00  0.000E+00
  -1.336  0.000E+00  0.000E+00
  -1.321  0.000E+00  0.000E+00
  -1.306  0.000E+00  0.000E+00
  -1.291  0.000E+00  0.000E+00
  -1.276  0.000E+00  0.000E+00
  -1.261  0.000E+00  0.000E+00
  -1.246  0.000E+00  0.000E+00
  -1.231  0.000E+00  0.000E+00
  -1.216  0.000E+00  0.000E+00
  -1.201  0.000E+00  0.000E+00
  -1.186  0.000E+00  0.000E+00
  -1.171  0.000E+00  0.000E+00
  -1.156  0.000E+00  0.000E+00
  -1.141  0.000E+00  0.000E+00
  -1.126  0.000E+00  0.000E+00
  -1.111  0.000E+00  0.000E+00
  -1.096  0.000E+00  0.000E+00
  -1.081  0.000E+00  0.000E+00
  -1.066  0.000E+00  0.000E+00
  -1.051  0.000E+00  0.000E+00
  -1.036  0.000E+00  0.000E+00
  -1.021  0.000E+00  0.000E+00
  -1.006  0.000E+00  0.000E+00
  -0.991  0.000E+00  0.000E+00
  -0.976  0.000E+00  0.000E+00
  -0.961  0.000E+00  0.000E+00
  -0.946  0.000E+00  0.000E+00
  -0.931  0.000E+00  0.000E+00
  -0.916  0.000E+00  0.000E+00
  -0.901  0.000E+00  0.000E+00
  -0.886  0.000E+00  0.000E+00
  -0.871  0.000E+00  0.000E+00
  -0.856  0.000E+00  0.000E+00
  -0.841  0.000E+00  0.000E+00
  -0.826  0.000E+00  0.000E+00
  -0.811  0.000E+00  0.000E+00
  -0.796  0.000E+00  0.000E+00
  -0.781  0.000E+00  0.000E+00
  -0.766  0.000E+00  0.000E+00
  -0.751  0.000E+00  0.000E+00
  -0.736  0.000E+00  0.000E+00
  -0.721  0.000E+00  0.000E+00
  -0.706  0.000E+00  0.000E+00
  -0.691  0.000E+00  0.000E+00
  -0.676  0.000E+00  0.000E+00
  -0.661  0.000E+00  0.000E+00
  -0.646  0.000E+00  0.000E+00
  -0.631  0.000E+00  0.000E+00
  -0.616  0.000E+00  0.000E+00
  -0.601  0.884E-13  0.884E-13
  -0.586  0.202E-12  0.202E-12
  -0.571  0.386E-12  0.386E-12
  -0.556  0.664E-12  0.664E-12
  -0.541  0.119E-11  0.119E-11
  -0.526  0.202E-11  0.202E-11
  -0.511  0.342E-11  0.342E-11
  -0.496  0.578E-11  0.578E-11
  -0.481  0.967E-11  0.967E-11
  -0.466  0.161E-10  0.161E-10
  -0.451  0.265E-10  0.265E-10
  -0.436  0.435E-10  0.435E-10
  -0.421  0.710E-10  0.710E-10
  -0.406  0.115E-09  0.115E-09
  -0.391  0.185E-09  0.185E-09
  -0.376  0.297E-09  0.297E-09
  -0.361  0.473E-09  0.473E-09
  -0.346  0.748E-09  0.748E-09
  -0.331  0.118E-08  0.118E-08
  -0.316  0.184E-08  0.184E-08
  -0.301  0.286E-08  0.286E-08
  -0.286  0.441E-08  0.441E-08
  -0.271  0.678E-08  0.678E-08
  -0.256  0.103E-07  0.103E-07
  -0.241  0.157E-07  0.157E-07
  -0.226  0.237E-07  0.237E-07
  -0.211  0.355E-07  0.355E-07
  -0.196  0.529E-07  0.529E-07
  -0.181  0.783E-07  0.783E-07
  -0.166  0.115E-06  0.115E-06
  -0.151  0.169E-06  0.169E-06
  -0.136  0.245E-06  0.245E-06
  -0.121  0.355E-06  0.355E-06
  -0.106  0.510E-06  0.510E-06
  -0.091  0.728E-06  0.728E-06
  -0.076  0.103E-05  0.103E-05
  -0.061  0.146E-05  0.146E-05
  -0.046  0.205E-05  0.205E-05
  -0.031  0.286E-05  0.286E-05
  -0.016  0.396E-05  0.396E-05
  -0.001  0.546E-05  0.546E-05
   0.014  0.749E-05  0.749E-05
   0.029  0.102E-04  0.102E-04
   0.044  0.138E-04  0.138E-04
   0.059  0.186E-04  0.186E-04
   0.074  0.249E-04  0.249E-04
   0.089  0.331E-04  0.331E-04
   0.104  0.437E-04  0.437E-04
   0.119  0.574E-04  0.574E-04
   0.134  0.751E-04  0.751E-04
   0.149  0.975E-04  0.975E-04
   0.164  0.126E-03  0.126E-03
   0.179  0.162E-03  0.162E-03
   0.194  0.206E-03  0.206E-03
   0.209  0.261E-03  0.261E-03
   0.224  0.330E-03  0.330E-03
   0.239  0.413E-03  0.413E-03
   0.254  0.515E-03  0.515E-03
   0.269  0.638E-03  0.638E-03
   0.284  0.786E-03  0.786E-03
   0.299  0.962E-03  0.962E-03
   0.314  0.117E-02  0.117E-02
   0.329  0.142E-02  0.142E-02
   0.344  0.171E-02  0.171E-02
   0.359  0.204E-02  0.204E-02
   0.374  0.243E-02  0.243E-02
   0.389  0.287E-02  0.287E-02
   0.404  0.338E-02  0.338E-02
   0.419  0.395E-02  0.395E-02
   0.434  0.459E-02  0.459E-02
   0.449  0.530E-02  0.530E-02
   0.464  0.609E-02  0.609E-02
   0.479  0.696E-02  0.696E-02
   0.494  0.791E-02  0.791E-02
   0.509  0.894E-02  0.894E-02
   0.524  0.100E-01  0.100E-01
   0.539  0.112E-01  0.112E-01
   0.554  0.125E-01  0.125E-01
   0.569  0.138E-01  0.138E-01
   0.584  0.152E-01  0.152E-01
   0.599  0.166E-01  0.166E-01
   0.614  0.180E-01  0.180E-01
   0.629  0.195E-01  0.195E-01
   0.644  0.210E-01  0.210E-01
   0.659  0.225E-01  0.225E-01
   0.674  0.239E-01  0.239E-01
   0.689  0.253E-01  0.253E-01
   0.704  0.267E-01  0.267E-01
   0.719  0.280E-01  0.280E-01
   0.734  0.293E-01  0.293E-01
   0.749  0.304E-01  0.304E-01
   0.764  0.315E-01  0.315E-01
   0.779  0.324E-01  0.324E-01
   0.794  0.332E-01  0.332E-01
   0.809  0.339E-01  0.339E-01
   0.824  0.345E-01  0.345E-01
   0.839  0.350E-01  0.350E-01
   0.854  0.353E-01  0.353E-01
   0.869  0.355E-01  0.355E-01
   0.884  0.356E-01  0.356E-01
   0.899  0.356E-01  0.356E-01
   0.914  0.354E-01  0.354E-01
   0.929  0.352E-01  0.352E-01
   0.944  0.350E-01  0.350E-01
   0.959  0.346E-01  0.346E-01
   0.974  0.342E-01  0.342E-01
   0.989  0.337E-01  0.337E-01
   1.004  0.332E-01  0.332E-01
   1.019  0.327E-01  0.327E-01
   1.034  0.322E-01  0.322E-01
   1.049  0.317E-01  0.317E-01
   1.064  0.311E-01  0.311E-01
   1.079  0.306E-01  0.306E-01
   1.094  0.301E-01  0.301E-01
   1.109  0.296E-01  0.296E-01
   1.124  0.291E-01  0.291E-01
   1.139  0.287E-01  0.287E-01
   1.154  0.283E-01  0.283E-01
   1.169  0.279E-01  0.279E-01
   1.184  0.275E-01  0.275E-01
   1.199  0.271E-01  0.271E-01
   1.214  0.268E-01  0.268E-01
   1.229  0.264E-01  0.264E-01
   1.244  0.261E-01  0.261E-01
   1.259  0.258E-01  0.258E-01
   1.274  0.255E-01  0.255E-01
   1.289  0.252E-01  0.252E-01
   1.304  0.249E-01  0.249E-01
   1.319  0.246E-01  0.246E-01
   1.334  0.243E-01  0.243E-01
   1.349  0.240E-01  0.240E-01
   1.364  0.237E-01  0.237E-01
   1.379  0.234E-01  0.234E-01
   1.394  0.231E-01  0.231E-01
   1.409  0.229E-01  0.229E-01
   1.424  0.226E-01  0.226E-01
   1.439  0.224E-01  0.224E-01
   1.454  0.222E-01  0.222E-01
   1.469  0.219E-01  0.219E-01
   1.484  0.218E-01  0.218E-01
   1.499  0.216E-01  0.216E-01
   1.514  0.214E-01  0.214E-01
   1.529  0.213E-01  0.213E-01
   1.544  0.212E-01  0.212E-01
   1.559  0.211E-01  0.211E-01
   1.574  0.211E-01  0.211E-01
   1.589  0.210E-01  0.210E-01
   1.604  0.210E-01  0.210E-01
   1.619  0.210E-01  0.210E-01
   1.634  0.210E-01  0.210E-01
   1.649  0.209E-01  0.209E-01
   1.664  0.209E-01  0.209E-01
   1.679  0.209E-01  0.209E-01
   1.694  0.209E-01  0.209E-01
   1.709  0.209E-01  0.209E-01
   1.724  0.209E-01  0.209E-01
   1.739  0.209E-01  0.209E-01
   1.754  0.208E-01  0.208E-01
   1.769  0.208E-01  0.208E-01
   1.784  0.207E-01  0.207E-01
   1.799  0.207E-01  0.207E-01
   1.814  0.206E-01  0.206E-01
   1.829  0.205E-01  0.205E-01
   1.844  0.204E-01  0.204E-01
   1.859  0.203E-01  0.203E-01
   1.874  0.202E-01  0.202E-01
   1.889  0.201E-01  0.201E-01
   1.904  0.200E-01  0.200E-01
   1.919  0.199E-01  0.199E-01
   1.934  0.198E-01  0.198E-01
   1.949  0.197E-01  0.197E-01
   1.964  0.196E-01  0.196E-01
   1.979  0.195E-01  0.195E-01
   1.994  0.195E-01  0.195E-01
   2.009  0.195E-01  0.195E-01
   2.024  0.194E-01  0.194E-01
   2.039  0.194E-01  0.194E-01
   2.054  0.194E-01  0.194E-01
   2.069  0.195E-01  0.195E-01
   2.084  0.195E-01  0.195E-01
   2.099  0.196E-01  0.196E-01
   2.114  0.196E-01  0.196E-01
   2.129  0.197E-01  0.197E-01
   2.144  0.198E-01  0.198E-01
   2.159  0.200E-01  0.200E-01
   2.174  0.201E-01  0.201E-01
   2.189  0.203E-01  0.203E-01
   2.204  0.205E-01  0.205E-01
   2.219  0.207E-01  0.207E-01
   2.234  0.209E-01  0.209E-01
   2.249  0.212E-01  0.212E-01
   2.264  0.215E-01  0.215E-01
   2.279  0.218E-01  0.218E-01
   2.294  0.222E-01  0.222E-01
   2.309  0.226E-01  0.226E-01
   2.324  0.230E-01  0.230E-01
   2.339  0.234E-01  0.234E-01
   2.354  0.238E-01  0.238E-01
   2.369  0.243E-01  0.243E-01
   2.384  0.248E-01  0.248E-01
   2.399  0.253E-01  0.253E-01
   2.414  0.257E-01  0.257E-01
   2.429  0.262E-01  0.262E-01
   2.444  0.266E-01  0.266E-01
   2.459  0.271E-01  0.271E-01
   2.474  0.275E-01  0.275E-01
   2.489  0.278E-01  0.278E-01
   2.504  0.281E-01  0.281E-01
   2.519  0.283E-01  0.283E-01
   2.534  0.285E-01  0.285E-01
   2.549  0.286E-01  0.286E-01
   2.564  0.287E-01  0.287E-01
   2.579  0.287E-01  0.287E-01
   2.594  0.286E-01  0.286E-01
   2.609  0.284E-01  0.284E-01
   2.624  0.282E-01  0.282E-01
   2.639  0.279E-01  0.279E-01
   2.654  0.275E-01  0.275E-01
   2.669  0.271E-01  0.271E-01
   2.684  0.267E-01  0.267E-01
   2.699  0.262E-01  0.262E-01
   2.714  0.257E-01  0.257E-01
   2.729  0.252E-01  0.252E-01
   2.744  0.246E-01  0.246E-01
   2.759  0.241E-01  0.241E-01
   2.774  0.236E-01  0.236E-01
   2.789  0.231E-01  0.231E-01
   2.804  0.226E-01  0.226E-01
   2.819  0.222E-01  0.222E-01
   2.834  0.218E-01  0.218E-01
   2.849  0.214E-01  0.214E-01
   2.864  0.211E-01  0.211E-01
   2.879  0.209E-01  0.209E-01
   2.894  0.207E-01  0.207E-01
   2.909  0.205E-01  0.205E-01
   2.924  0.204E-01  0.204E-01
   2.939  0.204E-01  0.204E-01
   2.954  0.204E-01  0.204E-01
   2.969  0.204E-01  0.204E-01
   2.984  0.205E-01  0.205E-01
   2.999  0.207E-01  0.207E-01
   3.014  0.208E-01  0.208E-01
   3.029  0.210E-01  0.210E-01
   3.044  0.212E-01  0.212E-01
   3.059  0.215E-01  0.215E-01
   3.074  0.217E-01  0.217E-01
   3.089  0.220E-01  0.220E-01
   3.104  0.222E-01  0.222E-01
   3.119  0.225E-01  0.225E-01
   3.134  0.228E-01  0.228E-01
   3.149  0.230E-01  0.230E-01
   3.164  0.232E-01  0.232E-01
   3.179  0.235E-01  0.235E-01
   3.194  0.237E-01  0.237E-01
   3.209  0.239E-01  0.239E-01
   3.224  0.241E-01  0.241E-01
   3.239  0.242E-01  0.242E-01
   3.254  0.244E-01  0.244E-01
   3.269  0.245E-01  0.245E-01
   3.284  0.246E-01  0.246E-01
   3.299  0.247E-01  0.247E-01
   3.314  0.248E-01  0.248E-01
   3.329  0.249E-01  0.249E-01
   3.344  0.250E-01  0.250E-01
   3.359  0.251E-01  0.251E-01
   3.374  0.252E-01  0.252E-01
   3.389  0.254E-01  0.254E-01
   3.404  0.256E-01  0.256E-01
   3.419  0.258E-01  0.258E-01
   3.434  0.260E-01  0.260E-01
   3.449  0.263E-01  0.263E-01
   3.464  0.266E-01  0.266E-01
   3.479  0.270E-01  0.270E-01
   3.494  0.275E-01  0.275E-01
   3.509  0.280E-01  0.280E-01
   3.524  0.287E-01  0.287E-01
   3.539  0.294E-01  0.294E-01
   3.554  0.302E-01  0.302E-01
   3.569  0.311E-01  0.311E-01
   3.584  0.321E-01  0.321E-01
   3.599  0.332E-01  0.332E-01
   3.614  0.344E-01  0.344E-01
   3.629  0.358E-01  0.358E-01
   3.644  0.372E-01  0.372E-01
   3.659  0.388E-01  0.388E-01
   3.674  0.405E-01  0.405E-01
   3.689  0.423E-01  0.423E-01
   3.704  0.442E-01  0.442E-01
   3.719  0.462E-01  0.462E-01
   3.734  0.484E-01  0.484E-01
   3.749  0.507E-01  0.507E-01
   3.764  0.531E-01  0.531E-01
   3.779  0.556E-01  0.556E-01
   3.794  0.582E-01  0.582E-01
   3.809  0.609E-01  0.609E-01
   3.824  0.638E-01  0.638E-01
   3.839  0.667E-01  0.667E-01
   3.854  0.698E-01  0.698E-01
   3.869  0.729E-01  0.729E-01
   3.884  0.762E-01  0.762E-01
   3.899  0.796E-01  0.796E-01
   3.914  0.831E-01  0.831E-01
   3.929  0.866E-01  0.866E-01
   3.944  0.903E-01  0.903E-01
   3.959  0.941E-01  0.941E-01
   3.974  0.979E-01  0.979E-01
   3.989  0.102E+00  0.102E+00
   4.004  0.106E+00  0.106E+00
   4.019  0.110E+00  0.110E+00
   4.034  0.114E+00  0.114E+00
   4.049  0.118E+00  0.118E+00
   4.064  0.123E+00  0.123E+00
   4.079  0.127E+00  0.127E+00
   4.094  0.131E+00  0.131E+00
   4.109  0.136E+00  0.136E+00
   4.124  0.140E+00  0.140E+00
   4.139  0.145E+00  0.145E+00
   4.154  0.149E+00  0.149E+00
   4.169  0.154E+00  0.154E+00
   4.184  0.159E+00  0.159E+00
   4.199  0.164E+00  0.164E+00
   4.214  0.168E+00  0.168E+00
   4.229  0.173E+00  0.173E+00
   4.244  0.178E+00  0.178E+00
   4.259  0.183E+00  0.183E+00
   4.274  0.188E+00  0.188E+00
   4.289  0.194E+00  0.194E+00
   4.304  0.199E+00  0.199E+00
   4.319  0.204E+00  0.204E+00
   4.334  0.210E+00  0.210E+00
   4.349  0.215E+00  0.215E+00
   4.364  0.221E+00  0.221E+00
   4.379  0.227E+00  0.227E+00
   4.394  0.233E+00  0.233E+00
   4.409  0.239E+00  0.239E+00
   4.424  0.245E+00  0.245E+00
   4.439  0.251E+00  0.251E+00
   4.454  0.258E+00  0.258E+00
   4.469  0.264E+00  0.264E+00
   4.484  0.271E+00  0.271E+00
   4.499  0.278E+00  0.278E+00
   4.514  0.285E+00  0.285E+00
   4.529  0.292E+00  0.292E+00
   4.544  0.298E+00  0.298E+00
   4.559  0.305E+00  0.305E+00
   4.574  0.312E+00  0.312E+00
   4.589  0.319E+00  0.319E+00
   4.604  0.326E+00  0.326E+00
   4.619  0.332E+00  0.332E+00
   4.634  0.339E+00  0.339E+00
   4.649  0.345E+00  0.345E+00
   4.664  0.351E+00  0.351E+00
   4.679  0.357E+00  0.357E+00
   4.694  0.362E+00  0.362E+00
   4.709  0.367E+00  0.367E+00
   4.724  0.372E+00  0.372E+00
   4.739  0.376E+00  0.376E+00
   4.754  0.380E+00  0.380E+00
   4.769  0.383E+00  0.383E+00
   4.784  0.386E+00  0.386E+00
   4.799  0.388E+00  0.388E+00
   4.814  0.390E+00  0.390E+00
   4.829  0.392E+00  0.392E+00
   4.844  0.393E+00  0.393E+00
   4.859  0.393E+00  0.393E+00
   4.874  0.394E+00  0.394E+00
   4.889  0.394E+00  0.394E+00
   4.904  0.393E+00  0.393E+00
   4.919  0.393E+00  0.393E+00
   4.934  0.392E+00  0.392E+00
   4.949  0.391E+00  0.391E+00
   4.964  0.390E+00  0.390E+00
   4.979  0.389E+00  0.389E+00
   4.994  0.388E+00  0.388E+00
   5.009  0.387E+00  0.387E+00
   5.024  0.386E+00  0.386E+00
   5.039  0.386E+00  0.386E+00
   5.054  0.385E+00  0.385E+00
   5.069  0.385E+00  0.385E+00
   5.084  0.385E+00  0.385E+00
   5.099  0.385E+00  0.385E+00
   5.114  0.385E+00  0.385E+00
   5.129  0.386E+00  0.386E+00
   5.144  0.386E+00  0.386E+00
   5.159  0.387E+00  0.387E+00
   5.174  0.388E+00  0.388E+00
   5.189  0.388E+00  0.388E+00
   5.204  0.389E+00  0.389E+00
   5.219  0.389E+00  0.389E+00
   5.234  0.389E+00  0.389E+00
   5.249  0.389E+00  0.389E+00
   5.264  0.389E+00  0.389E+00
   5.279  0.389E+00  0.389E+00
   5.294  0.388E+00  0.388E+00
   5.309  0.386E+00  0.386E+00
   5.324  0.385E+00  0.385E+00
   5.339  0.383E+00  0.383E+00
   5.354  0.380E+00  0.380E+00
   5.369  0.377E+00  0.377E+00
   5.384  0.374E+00  0.374E+00
   5.399  0.370E+00  0.370E+00
   5.414  0.367E+00  0.367E+00
   5.429  0.362E+00  0.362E+00
   5.444  0.358E+00  0.358E+00
   5.459  0.354E+00  0.354E+00
   5.474  0.349E+00  0.349E+00
   5.489  0.345E+00  0.345E+00
   5.504  0.340E+00  0.340E+00
   5.519  0.336E+00  0.336E+00
   5.534  0.332E+00  0.332E+00
   5.549  0.328E+00  0.328E+00
   5.564  0.324E+00  0.324E+00
   5.579  0.321E+00  0.321E+00
   5.594  0.317E+00  0.317E+00
   5.609  0.315E+00  0.315E+00
   5.624  0.312E+00  0.312E+00
   5.639  0.309E+00  0.309E+00
   5.654  0.307E+00  0.307E+00
   5.669  0.305E+00  0.305E+00
   5.684  0.304E+00  0.304E+00
   5.699  0.302E+00  0.302E+00
   5.714  0.301E+00  0.301E+00
   5.729  0.299E+00  0.299E+00
   5.744  0.298E+00  0.298E+00
   5.759  0.297E+00  0.297E+00
   5.774  0.296E+00  0.296E+00
   5.789  0.295E+00  0.295E+00
   5.804  0.294E+00  0.294E+00
   5.819  0.293E+00  0.293E+00
   5.834  0.292E+00  0.292E+00
   5.849  0.291E+00  0.291E+00
   5.864  0.290E+00  0.290E+00
   5.879  0.288E+00  0.288E+00
   5.894  0.287E+00  0.287E+00
   5.909  0.286E+00  0.286E+00
   5.924  0.285E+00  0.285E+00
   5.939  0.283E+00  0.283E+00
   5.954  0.282E+00  0.282E+00
   5.969  0.281E+00  0.281E+00
   5.984  0.280E+00  0.280E+00
   5.999  0.278E+00  0.278E+00
   6.014  0.277E+00  0.277E+00
   6.029  0.276E+00  0.276E+00
   6.044  0.275E+00  0.275E+00
   6.059  0.274E+00  0.274E+00
   6.074  0.273E+00  0.273E+00
   6.089  0.271E+00  0.271E+00
   6.104  0.270E+00  0.270E+00
   6.119  0.269E+00  0.269E+00
   6.134  0.268E+00  0.268E+00
   6.149  0.268E+00  0.268E+00
   6.164  0.267E+00  0.267E+00
   6.179  0.266E+00  0.266E+00
   6.194  0.265E+00  0.265E+00
   6.209  0.264E+00  0.264E+00
   6.224  0.263E+00  0.263E+00
   6.239  0.262E+00  0.262E+00
   6.254  0.261E+00  0.261E+00
   6.269  0.260E+00  0.260E+00
   6.284  0.259E+00  0.259E+00
   6.299  0.257E+00  0.257E+00
   6.314  0.256E+00  0.256E+00
   6.329  0.255E+00  0.255E+00
   6.344  0.254E+00  0.254E+00
   6.359  0.252E+00  0.252E+00
   6.374  0.251E+00  0.251E+00
   6.389  0.249E+00  0.249E+00
   6.404  0.247E+00  0.247E+00
   6.419  0.245E+00  0.245E+00
   6.434  0.243E+00  0.243E+00
   6.449  0.241E+00  0.241E+00
   6.464  0.239E+00  0.239E+00
   6.479  0.236E+00  0.236E+00
   6.494  0.234E+00  0.234E+00
   6.509  0.231E+00  0.231E+00
   6.524  0.228E+00  0.228E+00
   6.539  0.225E+00  0.225E+00
   6.554  0.222E+00  0.222E+00
   6.569  0.218E+00  0.218E+00
   6.584  0.215E+00  0.215E+00
   6.599  0.211E+00  0.211E+00
   6.614  0.208E+00  0.208E+00
   6.629  0.204E+00  0.204E+00
   6.644  0.200E+00  0.200E+00
   6.659  0.196E+00  0.196E+00
   6.674  0.192E+00  0.192E+00
   6.689  0.188E+00  0.188E+00
   6.704  0.184E+00  0.184E+00
   6.719  0.180E+00  0.180E+00
   6.734  0.176E+00  0.176E+00
   6.749  0.172E+00  0.172E+00
   6.764  0.169E+00  0.169E+00
   6.779  0.165E+00  0.165E+00
   6.794  0.162E+00  0.162E+00
   6.809  0.159E+00  0.159E+00
   6.824  0.156E+00  0.156E+00
   6.839  0.153E+00  0.153E+00
   6.854  0.151E+00  0.151E+00
   6.869  0.148E+00  0.148E+00
   6.884  0.146E+00  0.146E+00
   6.899  0.145E+00  0.145E+00
   6.914  0.143E+00  0.143E+00
   6.929  0.142E+00  0.142E+00
   6.944  0.141E+00  0.141E+00
   6.959  0.140E+00  0.140E+00
   6.974  0.140E+00  0.140E+00
   6.989  0.140E+00  0.140E+00
   7.004  0.140E+00  0.140E+00
   7.019  0.140E+00  0.140E+00
   7.034  0.141E+00  0.141E+00
   7.049  0.141E+00  0.141E+00
   7.064  0.142E+00  0.142E+00
   7.079  0.143E+00  0.143E+00
   7.094  0.144E+00  0.144E+00
   7.109  0.145E+00  0.145E+00
   7.124  0.146E+00  0.146E+00
   7.139  0.148E+00  0.148E+00
   7.154  0.149E+00  0.149E+00
   7.169  0.150E+00  0.150E+00
   7.184  0.151E+00  0.151E+00
   7.199  0.152E+00  0.152E+00
   7.214  0.153E+00  0.153E+00
   7.229  0.154E+00  0.154E+00
   7.244  0.154E+00  0.154E+00
   7.259  0.155E+00  0.155E+00
   7.274  0.155E+00  0.155E+00
   7.289  0.155E+00  0.155E+00
   7.304  0.155E+00  0.155E+00
   7.319  0.154E+00  0.154E+00
   7.334  0.153E+00  0.153E+00
   7.349  0.152E+00  0.152E+00
   7.364  0.151E+00  0.151E+00
   7.379  0.149E+00  0.149E+00
   7.394  0.148E+00  0.148E+00
   7.409  0.146E+00  0.146E+00
   7.424  0.143E+00  0.143E+00
   7.439  0.141E+00  0.141E+00
   7.454  0.139E+00  0.139E+00
   7.469  0.136E+00  0.136E+00
   7.484  0.133E+00  0.133E+00
   7.499  0.130E+00  0.130E+00
   7.514  0.128E+00  0.128E+00
   7.529  0.125E+00  0.125E+00
   7.544  0.122E+00  0.122E+00
   7.559  0.119E+00  0.119E+00
   7.574  0.116E+00  0.116E+00
   7.589  0.114E+00  0.114E+00
   7.604  0.111E+00  0.111E+00
   7.619  0.109E+00  0.109E+00
   7.634  0.107E+00  0.107E+00
   7.649  0.105E+00  0.105E+00
   7.664  0.103E+00  0.103E+00
   7.679  0.102E+00  0.102E+00
   7.694  0.100E+00  0.100E+00
   7.709  0.995E-01  0.995E-01
   7.724  0.988E-01  0.988E-01
   7.739  0.983E-01  0.983E-01
   7.754  0.981E-01  0.981E-01
   7.769  0.983E-01  0.983E-01
   7.784  0.987E-01  0.987E-01
   7.799  0.994E-01  0.994E-01
   7.814  0.100E+00  0.100E+00
   7.829  0.102E+00  0.102E+00
   7.844  0.103E+00  0.103E+00
   7.859  0.105E+00  0.105E+00
   7.874  0.107E+00  0.107E+00
   7.889  0.109E+00  0.109E+00
   7.904  0.112E+00  0.112E+00
   7.919  0.115E+00  0.115E+00
   7.934  0.118E+00  0.118E+00
   7.949  0.121E+00  0.121E+00
   7.964  0.125E+00  0.125E+00
   7.979  0.128E+00  0.128E+00
   7.994  0.132E+00  0.132E+00
   8.009  0.136E+00  0.136E+00
   8.024  0.140E+00  0.140E+00
   8.039  0.144E+00  0.144E+00
   8.054  0.148E+00  0.148E+00
   8.069  0.152E+00  0.152E+00
   8.084  0.156E+00  0.156E+00
   8.099  0.160E+00  0.160E+00
   8.114  0.164E+00  0.164E+00
   8.129  0.167E+00  0.167E+00
   8.144  0.171E+00  0.171E+00
   8.159  0.174E+00  0.174E+00
   8.174  0.177E+00  0.177E+00
   8.189  0.180E+00  0.180E+00
   8.204  0.183E+00  0.183E+00
   8.219  0.185E+00  0.185E+00
   8.234  0.187E+00  0.187E+00
   8.249  0.188E+00  0.188E+00
   8.264  0.189E+00  0.189E+00
   8.279  0.190E+00  0.190E+00
   8.294  0.190E+00  0.190E+00
   8.309  0.190E+00  0.190E+00
   8.324  0.190E+00  0.190E+00
   8.339  0.190E+00  0.190E+00
   8.354  0.189E+00  0.189E+00
   8.369  0.188E+00  0.188E+00
   8.384  0.186E+00  0.186E+00
   8.399  0.185E+00  0.185E+00
   8.414  0.183E+00  0.183E+00
   8.429  0.181E+00  0.181E+00
   8.444  0.178E+00  0.178E+00
   8.459  0.176E+00  0.176E+00
   8.474  0.173E+00  0.173E+00
   8.489  0.171E+00  0.171E+00
   8.504  0.168E+00  0.168E+00
   8.519  0.165E+00  0.165E+00
   8.534  0.163E+00  0.163E+00
   8.549  0.160E+00  0.160E+00
   8.564  0.157E+00  0.157E+00
   8.579  0.155E+00  0.155E+00
   8.594  0.152E+00  0.152E+00
   8.609  0.149E+00  0.149E+00
   8.624  0.147E+00  0.147E+00
   8.639  0.145E+00  0.145E+00
   8.654  0.143E+00  0.143E+00
   8.669  0.140E+00  0.140E+00
   8.684  0.139E+00  0.139E+00
   8.699  0.137E+00  0.137E+00
   8.714  0.135E+00  0.135E+00
   8.729  0.134E+00  0.134E+00
   8.744  0.132E+00  0.132E+00
   8.759  0.131E+00  0.131E+00
   8.774  0.130E+00  0.130E+00
   8.789  0.130E+00  0.130E+00
   8.804  0.129E+00  0.129E+00
   8.819  0.129E+00  0.129E+00
   8.834  0.128E+00  0.128E+00
   8.849  0.128E+00  0.128E+00
   8.864  0.128E+00  0.128E+00
   8.879  0.128E+00  0.128E+00
   8.894  0.128E+00  0.128E+00
   8.909  0.128E+00  0.128E+00
   8.924  0.129E+00  0.129E+00
   8.939  0.129E+00  0.129E+00
   8.954  0.130E+00  0.130E+00
   8.969  0.130E+00  0.130E+00
   8.984  0.131E+00  0.131E+00
   8.999  0.131E+00  0.131E+00
   9.014  0.132E+00  0.132E+00
   9.029  0.132E+00  0.132E+00
   9.044  0.133E+00  0.133E+00
   9.059  0.133E+00  0.133E+00
   9.074  0.134E+00  0.134E+00
   9.089  0.134E+00  0.134E+00
   9.104  0.134E+00  0.134E+00
   9.119  0.134E+00  0.134E+00
   9.134  0.134E+00  0.134E+00
   9.149  0.134E+00  0.134E+00
   9.164  0.133E+00  0.133E+00
   9.179  0.132E+00  0.132E+00
   9.194  0.132E+00  0.132E+00
   9.209  0.131E+00  0.131E+00
   9.224  0.129E+00  0.129E+00
   9.239  0.128E+00  0.128E+00
   9.254  0.126E+00  0.126E+00
   9.269  0.124E+00  0.124E+00
   9.284  0.122E+00  0.122E+00
   9.299  0.120E+00  0.120E+00
   9.314  0.117E+00  0.117E+00
   9.329  0.114E+00  0.114E+00
   9.344  0.111E+00  0.111E+00
   9.359  0.108E+00  0.108E+00
   9.374  0.105E+00  0.105E+00
   9.389  0.101E+00  0.101E+00
   9.404  0.972E-01  0.972E-01
   9.419  0.933E-01  0.933E-01
   9.434  0.893E-01  0.893E-01
   9.449  0.852E-01  0.852E-01
   9.464  0.810E-01  0.810E-01
   9.479  0.768E-01  0.768E-01
   9.494  0.726E-01  0.726E-01
   9.509  0.683E-01  0.683E-01
   9.524  0.641E-01  0.641E-01
   9.539  0.600E-01  0.600E-01
   9.554  0.559E-01  0.559E-01
   9.569  0.519E-01  0.519E-01
   9.584  0.480E-01  0.480E-01
   9.599  0.442E-01  0.442E-01
   9.614  0.406E-01  0.406E-01
   9.629  0.372E-01  0.372E-01
   9.644  0.339E-01  0.339E-01
   9.659  0.307E-01  0.307E-01
   9.674  0.278E-01  0.278E-01
   9.689  0.250E-01  0.250E-01
   9.704  0.225E-01  0.225E-01
   9.719  0.201E-01  0.201E-01
   9.734  0.179E-01  0.179E-01
   9.749  0.158E-01  0.158E-01
   9.764  0.140E-01  0.140E-01
   9.779  0.123E-01  0.123E-01
   9.794  0.107E-01  0.107E-01
   9.809  0.935E-02  0.935E-02
   9.824  0.811E-02  0.811E-02
   9.839  0.701E-02  0.701E-02
   9.854  0.603E-02  0.603E-02
   9.869  0.516E-02  0.516E-02
   9.884  0.440E-02  0.440E-02
   9.899  0.373E-02  0.373E-02
   9.914  0.315E-02  0.315E-02
   9.929  0.265E-02  0.265E-02
   9.944  0.222E-02  0.222E-02
   9.959  0.185E-02  0.185E-02
   9.974  0.153E-02  0.153E-02
   9.989  0.127E-02  0.127E-02
  10.004  0.104E-02  0.104E-02
  10.019  0.850E-03  0.850E-03
  10.034  0.691E-03  0.691E-03
  10.049  0.560E-03  0.560E-03
  10.064  0.451E-03  0.451E-03
  10.079  0.362E-03  0.362E-03
  10.094  0.288E-03  0.288E-03
  10.109  0.229E-03  0.229E-03
  10.124  0.181E-03  0.181E-03
  10.139  0.142E-03  0.142E-03
  10.154  0.111E-03  0.111E-03
  10.169  0.864E-04  0.864E-04
  10.184  0.668E-04  0.668E-04
  10.199  0.514E-04  0.514E-04
  10.214  0.394E-04  0.394E-04
  10.229  0.300E-04  0.300E-04
  10.244  0.227E-04  0.227E-04
  10.259  0.171E-04  0.171E-04
  10.274  0.129E-04  0.129E-04
  10.289  0.959E-05  0.959E-05
  10.304  0.711E-05  0.711E-05
  10.319  0.525E-05  0.525E-05
  10.334  0.385E-05  0.385E-05
  10.349  0.281E-05  0.281E-05
  10.364  0.204E-05  0.204E-05
  10.379  0.147E-05  0.147E-05
  10.394  0.106E-05  0.106E-05
  10.409  0.756E-06  0.756E-06
  10.424  0.537E-06  0.537E-06
  10.439  0.379E-06  0.379E-06
  10.454  0.266E-06  0.266E-06
